Time (s),Cart Position (m),Cart Velocity (m/s),Pole Angle (rad),Pole Angular Velocity (rad/s),Control Input (N)
1740035334.1878,0.0000,0.0000,0.0000,0.0000,0.0000
1740035334.1977,0.0000,0.0000,0.0000,0.0000,0.0000
1740035334.2077,-0.0000,-0.0029,0.0000,0.0043,0.1565
1740035334.2177,-0.0000,-0.0016,0.0000,0.0023,0.0930
1740035334.2278,-0.0000,-0.0008,0.0001,0.0013,0.0591
1740035334.2377,-0.0001,-0.0089,0.0002,0.0133,0.5268
1740035334.2483,-0.0002,-0.0075,0.0002,0.0113,0.4635
1740035334.2577,-0.0003,-0.0153,0.0005,0.0229,0.9590
1740035334.2677,-0.0005,-0.0228,0.0007,0.0343,1.4177
1740035334.2778,-0.0006,-0.0120,0.0009,0.0181,0.9024
1740035334.2877,-0.0007,-0.0212,0.0011,0.0319,1.4357
1740035334.2978,-0.0009,-0.0092,0.0013,0.0140,0.8564
1740035334.3078,-0.0009,-0.0029,0.0014,0.0047,0.5480
1740035334.3178,-0.0011,-0.0147,0.0016,0.0226,1.2540
1740035334.3277,-0.0011,-0.0059,0.0017,0.0096,0.8329
1740035334.3378,-0.0012,0.0007,0.0018,-0.0002,0.4979
1740035334.3477,-0.0011,0.0047,0.0017,-0.0059,0.2880
1740035334.3577,-0.0012,-0.0059,0.0019,0.0102,0.9032
1740035334.3677,-0.0012,0.0008,0.0019,0.0004,0.5716
1740035334.3777,-0.0013,-0.0016,0.0020,0.0043,0.7382
1740035334.3877,-0.0013,0.0040,0.0020,-0.0038,0.4547
1740035334.3978,-0.0012,0.0073,0.0019,-0.0084,0.2794
1740035334.4077,-0.0011,0.0046,0.0018,-0.0040,0.4190
1740035334.4177,-0.0011,0.0076,0.0018,-0.0082,0.2582
1740035334.4277,-0.0010,0.0011,0.0017,0.0017,0.5991
1740035334.4377,-0.0009,0.0056,0.0017,-0.0048,0.3652
1740035334.4477,-0.0009,0.0026,0.0016,-0.0001,0.5264
1740035334.4577,-0.0008,0.0066,0.0016,-0.0057,0.3223
1740035334.4677,-0.0008,0.0036,0.0015,-0.0011,0.4776
1740035334.4778,-0.0007,0.0071,0.0015,-0.0061,0.2934
1740035334.4877,-0.0006,0.0052,0.0014,-0.0030,0.3913
1740035334.4977,-0.0006,0.0080,0.0013,-0.0069,0.2423
1740035334.5077,-0.0005,0.0160,0.0012,-0.0187,-0.1953
1740035334.5177,-0.0003,0.0137,0.0011,-0.0151,-0.1062
1740035334.5277,-0.0002,0.0219,0.0009,-0.0271,-0.5727
1740035334.5377,0.0000,0.0165,0.0007,-0.0188,-0.3310
1740035334.5477,0.0002,0.0389,0.0005,-0.0524,-1.5809
1740035334.5578,0.0005,0.0250,0.0001,-0.0313,-0.9309
1740035334.5678,0.0007,0.0175,-0.0001,-0.0200,-0.5852
1740035334.5777,0.0008,0.0122,-0.0003,-0.0120,-0.3417
1740035334.5877,0.0010,0.0512,-0.0004,-0.0706,-2.4750
1740035334.5978,0.0014,0.0298,-0.0010,-0.0384,-1.4650
1740035334.6077,0.0016,0.0184,-0.0012,-0.0214,-0.9278
1740035334.6178,0.0021,0.0528,-0.0019,-0.0730,-2.9625
1740035334.6278,0.0025,0.0300,-0.0024,-0.0390,-1.8817
1740035334.6378,0.0032,0.0621,-0.0034,-0.0873,-3.8806
1740035334.6478,0.0035,0.0359,-0.0039,-0.0481,-2.6283
1740035334.6577,0.0042,0.0604,-0.0049,-0.0853,-4.2370
1740035334.6678,0.0047,0.0605,-0.0056,-0.0861,-4.4625
1740035334.6778,0.0050,0.0344,-0.0061,-0.0474,-3.2100
1740035334.6877,0.0052,0.0250,-0.0063,-0.0341,-2.8186
1740035334.6977,0.0054,0.0023,-0.0065,-0.0010,-1.6936
1740035334.7077,0.0053,-0.0082,-0.0064,0.0139,-1.1620
1740035334.7177,0.0053,-0.0073,-0.0063,0.0119,-1.2339
1740035334.7277,0.0052,-0.0154,-0.0062,0.0232,-0.8040
1740035334.7378,0.0051,-0.0192,-0.0060,0.0281,-0.5927
1740035334.7477,0.0048,-0.0427,-0.0056,0.0624,0.7092
1740035334.7577,0.0044,-0.0351,-0.0051,0.0500,0.3978
1740035334.7677,0.0040,-0.0536,-0.0045,0.0768,1.4798
1740035334.7777,0.0037,-0.0423,-0.0040,0.0593,0.9830
1740035334.7877,0.0033,-0.0327,-0.0035,0.0441,0.5632
1740035334.7977,0.0026,-0.0578,-0.0025,0.0810,2.1243
1740035334.8077,0.0022,-0.0406,-0.0019,0.0546,1.3336
1740035334.8177,0.0018,-0.0266,-0.0015,0.0332,0.6849
1740035334.8277,0.0016,-0.0400,-0.0012,0.0530,1.4678
1740035334.8378,0.0013,-0.0307,-0.0009,0.0389,1.0429
1740035334.8477,0.0011,-0.0200,-0.0005,0.0226,0.5438
1740035334.8578,0.0007,-0.0500,-0.0001,0.0675,2.2626
1740035334.8677,0.0003,-0.0248,0.0004,0.0295,1.0380
1740035334.8777,0.0001,-0.0157,0.0006,0.0159,0.6081
1740035334.8878,0.0000,0.0027,0.0007,-0.0116,-0.3530
1740035334.8978,0.0000,0.0001,0.0006,-0.0076,-0.2303
1740035334.9077,0.0001,0.0159,0.0006,-0.0313,-1.1027
1740035334.9177,0.0002,0.0066,0.0003,-0.0172,-0.6618
1740035334.9277,0.0002,0.0012,0.0002,-0.0089,-0.4006
1740035334.9377,0.0002,-0.0020,0.0001,-0.0041,-0.2458
1740035334.9477,0.0002,-0.0040,0.0001,-0.0011,-0.1471
1740035334.9577,0.0003,0.0120,-0.0002,-0.0251,-1.0785
1740035334.9678,0.0004,0.0184,-0.0004,-0.0346,-1.4803
1740035334.9783,0.0005,0.0073,-0.0006,-0.0179,-0.9484
1740035334.9877,0.0005,0.0090,-0.0007,-0.0206,-1.0754
1740035334.9978,0.0006,0.0003,-0.0008,-0.0075,-0.6491
1740035335.0084,0.0006,-0.0028,-0.0009,-0.0030,-0.4984
1740035335.0178,0.0004,-0.0218,-0.0007,0.0254,0.5583
1740035335.0277,0.0002,-0.0176,-0.0005,0.0189,0.3689
1740035335.0377,0.0001,-0.0140,-0.0004,0.0134,0.2089
1740035335.0477,-0.0000,-0.0117,-0.0002,0.0100,0.1144
1740035335.0578,-0.0002,-0.0095,-0.0002,0.0066,0.0096
1740035335.0677,-0.0002,-0.0090,-0.0001,0.0057,-0.0079
1740035335.0777,-0.0003,-0.0025,-0.0001,-0.0040,-0.3690
1740035335.0877,-0.0003,-0.0047,-0.0002,-0.0007,-0.2581
1740035335.0978,-0.0002,0.0058,-0.0004,-0.0165,-0.8751
1740035335.1078,-0.0002,-0.0008,-0.0005,-0.0066,-0.5563
1740035335.1177,-0.0002,-0.0053,-0.0005,0.0001,-0.3259
1740035335.1277,-0.0003,0.0073,-0.0005,-0.0189,-1.0129
1740035335.1386,-0.0003,0.0008,-0.0006,-0.0091,-0.6925
1740035335.1477,-0.0003,-0.0054,-0.0006,0.0001,-0.3789
1740035335.1577,-0.0002,0.0092,-0.0009,-0.0219,-1.2336
1740035335.1677,-0.0001,0.0095,-0.0010,-0.0225,-1.3057
1740035335.1778,-0.0001,-0.0010,-0.0012,-0.0067,-0.7870
1740035335.1877,-0.0001,-0.0059,-0.0012,0.0004,-0.5425
1740035335.1977,-0.0002,-0.0099,-0.0012,0.0062,-0.3346
1740035335.2077,-0.0003,-0.0254,-0.0011,0.0293,0.5129
1740035335.2177,-0.0006,-0.0203,-0.0008,0.0214,0.2923
1740035335.2277,-0.0008,-0.0474,-0.0006,0.0619,1.7958
1740035335.2378,-0.0012,-0.0314,-0.0001,0.0377,1.0555
1740035335.2477,-0.0015,-0.0646,0.0003,0.0875,2.9287
1740035335.2577,-0.0020,-0.0391,0.0009,0.0491,1.7311
1740035335.2677,-0.0023,-0.0825,0.0014,0.1142,4.1780
1740035335.2778,-0.0029,-0.0500,0.0022,0.0655,2.6491
1740035335.2877,-0.0033,-0.0262,0.0026,0.0300,1.5042
1740035335.2978,-0.0041,-0.0722,0.0037,0.0991,4.2717
1740035335.3077,-0.0046,-0.0382,0.0044,0.0484,2.6639
1740035335.3177,-0.0049,-0.0160,0.0047,0.0158,1.5898
1740035335.3277,-0.0050,-0.0032,0.0048,-0.0028,0.9538
1740035335.3377,-0.0050,0.0041,0.0047,-0.0131,0.5772
1740035335.3477,-0.0049,-0.0216,0.0046,0.0262,1.9618
1740035335.3577,-0.0051,-0.0056,0.0047,0.0029,1.1768
1740035335.3677,-0.0051,-0.0103,0.0047,0.0106,1.4584
1740035335.3778,-0.0051,0.0013,0.0047,-0.0061,0.8799
1740035335.3877,-0.0051,0.0072,0.0046,-0.0143,0.5720
1740035335.3978,-0.0049,0.0166,0.0043,-0.0277,0.0347
1740035335.4077,-0.0048,0.0161,0.0041,-0.0263,0.0356
1740035335.4178,-0.0046,0.0155,0.0039,-0.0249,0.0363
1740035335.4279,-0.0045,0.0150,0.0036,-0.0234,0.0366
1740035335.4377,-0.0042,0.0361,0.0033,-0.0547,-1.1771
1740035335.4478,-0.0039,0.0282,0.0028,-0.0422,-0.8416
1740035335.4577,-0.0037,0.0198,0.0025,-0.0291,-0.4569
1740035335.4677,-0.0035,0.0371,0.0022,-0.0547,-1.4377
1740035335.4777,-0.0032,0.0242,0.0017,-0.0349,-0.8417
1740035335.4877,-0.0030,0.0333,0.0014,-0.0482,-1.3946
1740035335.4977,-0.0027,0.0210,0.0011,-0.0294,-0.8179
1740035335.5078,-0.0026,0.0151,0.0009,-0.0204,-0.5456
1740035335.5177,-0.0025,0.0099,0.0007,-0.0125,-0.3032
1740035335.5277,-0.0024,0.0072,0.0006,-0.0083,-0.1744
1740035335.5377,-0.0023,0.0053,0.0006,-0.0054,-0.0841
1740035335.5478,-0.0023,0.0044,0.0005,-0.0038,-0.0381
1740035335.5577,-0.0022,0.0039,0.0005,-0.0030,-0.0148
1740035335.5677,-0.0022,-0.0126,0.0005,0.0217,0.8704
1740035335.5777,-0.0023,-0.0060,0.0006,0.0119,0.5596
1740035335.5877,-0.0023,-0.0012,0.0007,0.0047,0.3269
1740035335.5978,-0.0025,-0.0200,0.0010,0.0331,1.4385
1740035335.6078,-0.0027,-0.0089,0.0013,0.0164,0.9133
1740035335.6178,-0.0028,-0.0216,0.0015,0.0355,1.6610
1740035335.6278,-0.0030,-0.0183,0.0018,0.0307,1.5658
1740035335.6377,-0.0031,-0.0054,0.0020,0.0116,0.9425
1740035335.6477,-0.0031,0.0014,0.0020,0.0017,0.6107
1740035335.6577,-0.0031,0.0060,0.0020,-0.0049,0.3767
1740035335.6677,-0.0030,0.0099,0.0019,-0.0105,0.1655
1740035335.6777,-0.0029,0.0107,0.0018,-0.0113,0.1126
1740035335.6877,-0.0028,0.0101,0.0017,-0.0102,0.1312
1740035335.6977,-0.0027,0.0106,0.0016,-0.0107,0.0921
1740035335.7077,-0.0026,0.0085,0.0015,-0.0072,0.1953
1740035335.7177,-0.0025,0.0096,0.0014,-0.0086,0.1299
1740035335.7277,-0.0024,0.0049,0.0013,-0.0013,0.3771
1740035335.7378,-0.0023,0.0075,0.0013,-0.0051,0.2377
1740035335.7477,-0.0022,0.0089,0.0013,-0.0069,0.1634
1740035335.7577,-0.0023,-0.0009,0.0013,0.0079,0.7209
1740035335.7677,-0.0022,0.0043,0.0014,0.0003,0.4670
1740035335.7777,-0.0024,-0.0109,0.0016,0.0233,1.3655
1740035335.7877,-0.0024,-0.0239,0.0018,0.0430,2.1261
1740035335.7977,-0.0026,-0.0064,0.0021,0.0169,1.2788
1740035335.8077,-0.0026,-0.0240,0.0022,0.0437,2.2776
1740035335.8177,-0.0028,-0.0053,0.0025,0.0159,1.3706
1740035335.8277,-0.0028,-0.0156,0.0026,0.0316,1.9711
1740035335.8377,-0.0028,0.0003,0.0028,0.0081,1.1905
1740035335.8477,-0.0028,0.0086,0.0028,-0.0039,0.7748
1740035335.8577,-0.0028,0.0031,0.0029,0.0046,1.1166
1740035335.8678,-0.0027,0.0113,0.0029,-0.0072,0.7003
1740035335.8777,-0.0025,0.0194,0.0027,-0.0189,0.2509
1740035335.8877,-0.0023,0.0204,0.0025,-0.0200,0.1712
1740035335.8978,-0.0021,0.0208,0.0023,-0.0202,0.1237
1740035335.9077,-0.0019,0.0573,0.0021,-0.0745,-1.8753
1740035335.9178,-0.0015,0.0418,0.0015,-0.0510,-1.1716
1740035335.9277,-0.0011,0.0320,0.0011,-0.0358,-0.7263
1740035335.9377,-0.0004,0.0698,0.0002,-0.0922,-2.9974
1740035335.9478,0.0002,0.1039,-0.0006,-0.1432,-5.0184
1740035335.9577,0.0009,0.0647,-0.0016,-0.0842,-3.1748
1740035335.9678,0.0014,0.0359,-0.0022,-0.0411,-1.7942
1740035335.9779,0.0022,0.0755,-0.0032,-0.1006,-4.1897
1740035335.9878,0.0024,0.0648,-0.0036,-0.0847,-3.7212
1740035335.9978,0.0030,0.0193,-0.0042,-0.0169,-1.4861
1740035336.0077,0.0031,0.0453,-0.0043,-0.0566,-2.9485
1740035336.0177,0.0035,0.0207,-0.0047,-0.0201,-1.7534
1740035336.0277,0.0036,0.0277,-0.0048,-0.0314,-2.1986
1740035336.0377,0.0038,0.0097,-0.0050,-0.0050,-1.3114
1740035336.0478,0.0038,0.0007,-0.0050,0.0080,-0.8533
1740035336.0577,0.0038,-0.0080,-0.0048,0.0201,-0.3848
1740035336.0677,0.0037,-0.0168,-0.0046,0.0326,0.1055
1740035336.0777,0.0035,-0.0150,-0.0043,0.0292,0.0540
1740035336.0877,0.0034,-0.0140,-0.0040,0.0271,0.0297
1740035336.0977,0.0033,-0.0129,-0.0038,0.0249,0.0093
1740035336.1077,0.0031,-0.0121,-0.0035,0.0230,-0.0028
1740035336.1177,0.0028,-0.0322,-0.0030,0.0526,1.1884
1740035336.1277,0.0025,-0.0462,-0.0025,0.0730,2.0358
1740035336.1377,0.0022,-0.0282,-0.0020,0.0455,1.2028
1740035336.1478,0.0020,-0.0207,-0.0017,0.0340,0.8590
1740035336.1578,0.0018,-0.0121,-0.0014,0.0206,0.4549
1740035336.1678,0.0017,-0.0214,-0.0012,0.0344,0.9942
1740035336.1777,0.0015,-0.0127,-0.0009,0.0211,0.5873
1740035336.1878,0.0015,-0.0075,-0.0008,0.0131,0.3414
1740035336.1977,0.0014,-0.0047,-0.0007,0.0089,0.2149
1740035336.2077,0.0014,0.0002,-0.0006,0.0013,-0.0389
1740035336.2177,0.0014,-0.0001,-0.0006,0.0016,-0.0249
1740035336.2277,0.0014,0.0131,-0.0006,-0.0182,-0.7362
1740035336.2377,0.0015,0.0068,-0.0007,-0.0089,-0.4391
1740035336.2477,0.0015,0.0213,-0.0008,-0.0308,-1.2457
1740035336.2577,0.0017,0.0108,-0.0010,-0.0150,-0.7426
1740035336.2677,0.0018,0.0144,-0.0012,-0.0205,-0.9723
1740035336.2777,0.0019,0.0062,-0.0013,-0.0084,-0.5817
1740035336.2877,0.0019,0.0123,-0.0014,-0.0176,-0.9327
1740035336.2978,0.0020,0.0046,-0.0015,-0.0062,-0.5592
1740035336.3077,0.0020,0.0074,-0.0015,-0.0107,-0.7315
1740035336.3178,0.0021,0.0026,-0.0016,-0.0037,-0.4996
1740035336.3278,0.0021,-0.0009,-0.0016,0.0015,-0.3233
1740035336.3378,0.0021,0.0020,-0.0016,-0.0032,-0.5059
1740035336.3477,0.0021,-0.0014,-0.0016,0.0017,-0.3365
1740035336.3577,0.0021,-0.0039,-0.0016,0.0052,-0.2076
1740035336.3678,0.0020,-0.0036,-0.0015,0.0045,-0.2239
1740035336.3778,0.0020,-0.0051,-0.0015,0.0065,-0.1409
1740035336.3877,0.0020,0.0045,-0.0014,-0.0081,-0.6543
1740035336.3978,0.0020,-0.0007,-0.0014,-0.0005,-0.3966
1740035336.4078,0.0020,0.0123,-0.0015,-0.0202,-1.1091
1740035336.4178,0.0020,0.0050,-0.0016,-0.0094,-0.7566
1740035336.4279,0.0021,0.0180,-0.0016,-0.0292,-1.4876
1740035336.4377,0.0022,0.0057,-0.0018,-0.0109,-0.8930
1740035336.4478,0.0022,0.0244,-0.0019,-0.0393,-1.9370
1740035336.4577,0.0023,0.0131,-0.0021,-0.0224,-1.3963
1740035336.4677,0.0024,0.0012,-0.0022,-0.0048,-0.8023
1740035336.4777,0.0026,0.0169,-0.0026,-0.0286,-1.7472
1740035336.4877,0.0027,0.0034,-0.0027,-0.0086,-1.0934
1740035336.4977,0.0029,0.0125,-0.0030,-0.0226,-1.6808
1740035336.5077,0.0029,-0.0006,-0.0032,-0.0035,-1.0404
1740035336.5178,0.0030,0.0072,-0.0033,-0.0154,-1.5106
1740035336.5277,0.0030,-0.0020,-0.0034,-0.0022,-1.0698
1740035336.5377,0.0029,-0.0101,-0.0033,0.0095,-0.6540
1740035336.5478,0.0028,-0.0279,-0.0032,0.0358,0.3131
1740035336.5581,0.0026,-0.0245,-0.0029,0.0302,0.1815
1740035336.5677,0.0023,-0.0221,-0.0026,0.0261,0.0926
1740035336.5778,0.0019,-0.0452,-0.0020,0.0602,1.4685
1740035336.5877,0.0015,-0.0707,-0.0015,0.0981,2.9531
1740035336.5977,0.0009,-0.0446,-0.0007,0.0586,1.7384
1740035336.6077,0.0005,-0.0755,-0.0002,0.1048,3.5245
1740035336.6178,0.0001,-0.0540,0.0004,0.0722,2.5187
1740035336.6277,-0.0003,-0.0313,0.0009,0.0381,1.4419
1740035336.6377,-0.0006,-0.0188,0.0012,0.0195,0.8489
1740035336.6477,-0.0008,-0.0528,0.0014,0.0706,2.7321
1740035336.6577,-0.0011,-0.0363,0.0018,0.0459,1.9549
1740035336.6713,-0.0014,-0.0587,0.0022,0.0798,3.2703
1740035336.6777,-0.0032,-0.1866,0.0048,0.2714,10.8168
1740035336.6879,-0.0047,-0.0915,0.0069,0.1289,6.3193
1740035336.6980,-0.0065,-0.3105,0.0096,0.4581,18.8255
1740035336.7079,-0.0092,-0.1940,0.0135,0.2837,13.6714
1740035336.7177,-0.0105,-0.1268,0.0155,0.1839,10.6593
1740035336.7281,-0.0112,-0.0431,0.0165,0.0601,6.5466
1740035336.7377,-0.0115,-0.0020,0.0169,0.0010,4.6047
1740035336.7477,-0.0113,0.0331,0.0166,-0.0492,2.7925
1740035336.7593,-0.0113,0.0359,0.0165,-0.0529,2.6421
1740035336.7678,-0.0105,0.0668,0.0154,-0.0953,0.9072
1740035336.7777,-0.0098,0.0703,0.0145,-0.0981,0.5990
1740035336.7883,-0.0092,0.0796,0.0136,-0.1099,-0.0183
1740035336.7978,-0.0083,0.0840,0.0124,-0.1142,-0.4440
1740035336.8077,-0.0075,0.0871,0.0113,-0.1169,-0.7857
1740035336.8178,-0.0068,0.0788,0.0104,-0.1029,-0.4868
1740035336.8279,-0.0062,0.0725,0.0097,-0.0919,-0.2727
1740035336.8377,-0.0054,0.0718,0.0086,-0.0891,-0.4086
1740035336.8477,-0.0048,0.0660,0.0079,-0.0790,-0.2195
1740035336.8578,-0.0043,0.0837,0.0073,-0.1046,-1.2711
1740035336.8678,-0.0031,0.0936,0.0057,-0.1178,-2.1322
1740035336.8777,-0.0022,0.0778,0.0046,-0.0930,-1.5061
1740035336.8877,-0.0016,0.0636,0.0039,-0.0709,-0.8909
1740035336.8977,-0.0009,0.0526,0.0032,-0.0536,-0.4316
1740035336.9077,-0.0004,0.0466,0.0027,-0.0440,-0.1976
1740035336.9178,0.0000,0.0394,0.0024,-0.0327,0.1197
1740035336.9277,0.0004,0.0410,0.0020,-0.0346,-0.0163
1740035336.9377,0.0008,0.0391,0.0017,-0.0314,0.0254
1740035336.9477,0.0012,0.0298,0.0014,-0.0171,0.4719
1740035336.9577,0.0015,0.0322,0.0012,-0.0205,0.3133
1740035336.9677,0.0018,0.0280,0.0010,-0.0139,0.5083
1740035336.9777,0.0021,0.0308,0.0009,-0.0179,0.3335
1740035336.9877,0.0024,0.0223,0.0007,-0.0051,0.7570
1740035336.9977,0.0027,0.0274,0.0006,-0.0125,0.4798
1740035337.0077,0.0029,0.0173,0.0005,0.0027,1.0018
1740035337.0177,0.0032,0.0244,0.0004,-0.0079,0.6241
1740035337.0277,0.0034,0.0140,0.0003,0.0078,1.1720
1740035337.0377,0.0036,0.0226,0.0004,-0.0051,0.7243
1740035337.0477,0.0038,0.0065,0.0003,0.0192,1.5877
1740035337.0593,0.0039,0.0114,0.0004,0.0118,1.3430
1740035337.0678,0.0041,0.0255,0.0004,-0.0093,0.6019
1740035337.0778,0.0044,0.0298,0.0002,-0.0156,0.3521
1740035337.0877,0.0047,0.0067,0.0001,0.0191,1.5681
1740035337.0993,0.0047,0.0079,0.0001,0.0173,1.5078
1740035337.1077,0.0049,0.0047,0.0002,0.0222,1.7203
1740035337.1177,0.0050,0.0166,0.0003,0.0042,1.1157
1740035337.1277,0.0052,0.0035,0.0003,0.0240,1.8348
1740035337.1377,0.0052,0.0121,0.0004,0.0111,1.4057
1740035337.1477,0.0055,0.0243,0.0004,-0.0072,0.7674
1740035337.1577,0.0057,0.0293,0.0003,-0.0146,0.4816
1740035337.1677,0.0060,0.0208,0.0001,-0.0017,0.9125
1740035337.1777,0.0063,0.0271,0.0001,-0.0112,0.5664
1740035337.1878,0.0066,0.0279,-0.0001,-0.0123,0.4994
1740035337.1977,0.0068,0.0304,-0.0002,-0.0161,0.3381
1740035337.2078,0.0071,0.0319,-0.0004,-0.0182,0.2280
1740035337.2192,0.0075,0.0397,-0.0006,-0.0300,-0.2545
1740035337.2277,0.0079,0.0497,-0.0010,-0.0450,-0.8797
1740035337.2378,0.0084,0.0409,-0.0014,-0.0319,-0.5033
1740035337.2477,0.0088,0.0550,-0.0017,-0.0531,-1.3393
1740035337.2578,0.0092,0.0436,-0.0020,-0.0362,-0.8361
1740035337.2677,0.0096,0.0639,-0.0023,-0.0669,-2.0096
1740035337.2777,0.0101,0.0457,-0.0029,-0.0399,-1.1808
1740035337.2878,0.0105,0.0639,-0.0032,-0.0674,-2.2597
1740035337.2977,0.0110,0.0458,-0.0037,-0.0406,-1.4273
1740035337.3077,0.0114,0.0324,-0.0040,-0.0209,-0.8048
1740035337.3177,0.0120,0.0517,-0.0045,-0.0503,-2.0105
1740035337.3278,0.0125,0.0692,-0.0050,-0.0772,-3.0988
1740035337.3377,0.0130,0.0424,-0.0055,-0.0377,-1.8413
1740035337.3477,0.0134,0.0545,-0.0058,-0.0565,-2.6021
1740035337.3578,0.0138,0.0344,-0.0062,-0.0272,-1.6578
1740035337.3677,0.0140,0.0197,-0.0063,-0.0059,-0.9512
1740035337.3777,0.0145,0.0431,-0.0068,-0.0419,-2.3774
1740035337.3877,0.0148,0.0243,-0.0071,-0.0146,-1.4881
1740035337.3981,0.0152,0.0328,-0.0074,-0.0282,-2.0747
1740035337.4077,0.0154,0.0174,-0.0076,-0.0060,-1.3333
1740035337.4177,0.0155,0.0067,-0.0075,0.0089,-0.8113
1740035337.4277,0.0155,0.0129,-0.0074,-0.0015,-1.1694
1740035337.4377,0.0156,0.0036,-0.0074,0.0113,-0.7164
1740035337.4477,0.0156,0.0010,-0.0072,0.0141,-0.5921
1740035337.4577,0.0156,-0.0033,-0.0070,0.0194,-0.3757
1740035337.4677,0.0156,-0.0089,-0.0068,0.0268,-0.0701
1740035337.4777,0.0155,-0.0087,-0.0066,0.0255,-0.0672
1740035337.4877,0.0154,-0.0157,-0.0063,0.0349,0.3218
1740035337.4977,0.0153,-0.0122,-0.0060,0.0286,0.1647
1740035337.5077,0.0151,-0.0178,-0.0057,0.0361,0.4908
1740035337.5177,0.0150,-0.0129,-0.0054,0.0278,0.2647
1740035337.5277,0.0149,-0.0103,-0.0052,0.0231,0.1440
1740035337.5377,0.0146,-0.0227,-0.0048,0.0410,0.8850
1740035337.5477,0.0145,-0.0152,-0.0044,0.0289,0.5319
1740035337.5577,0.0142,-0.0215,-0.0040,0.0377,0.9462
1740035337.5677,0.0140,-0.0294,-0.0037,0.0489,1.4242
1740035337.5777,0.0138,-0.0169,-0.0033,0.0294,0.8204
1740035337.5877,0.0137,-0.0162,-0.0030,0.0278,0.8182
1740035337.5977,0.0136,-0.0097,-0.0028,0.0175,0.4975
1740035337.6078,0.0135,-0.0062,-0.0027,0.0119,0.3262
1740035337.6178,0.0134,-0.0033,-0.0026,0.0070,0.1693
1740035337.6277,0.0134,-0.0018,-0.0026,0.0045,0.0854
1740035337.6377,0.0134,0.0031,-0.0026,-0.0032,-0.2046
1740035337.6477,0.0135,0.0017,-0.0026,-0.0016,-0.1597
1740035337.6577,0.0136,0.0104,-0.0028,-0.0149,-0.6862
1740035337.6677,0.0137,0.0269,-0.0029,-0.0401,-1.6358
1740035337.6777,0.0139,0.0132,-0.0032,-0.0199,-0.9991
1740035337.6877,0.0140,0.0273,-0.0034,-0.0415,-1.8250
1740035337.6977,0.0142,0.0121,-0.0037,-0.0191,-1.1139
1740035337.7077,0.0143,0.0315,-0.0038,-0.0488,-2.2298
1740035337.7177,0.0145,0.0130,-0.0042,-0.0215,-1.3569
1740035337.7277,0.0145,0.0032,-0.0043,-0.0072,-0.8926
1740035337.7378,0.0149,0.0288,-0.0048,-0.0462,-2.4391
1740035337.7477,0.0151,0.0100,-0.0051,-0.0186,-1.5547
1740035337.7577,0.0153,0.0225,-0.0056,-0.0379,-2.3873
1740035337.7677,0.0155,0.0238,-0.0058,-0.0407,-2.5747
1740035337.7777,0.0156,0.0030,-0.0061,-0.0103,-1.5727
1740035337.7877,0.0156,0.0103,-0.0061,-0.0221,-2.0255
1740035337.7979,0.0156,-0.0025,-0.0062,-0.0036,-1.4064
1740035337.8078,0.0155,-0.0135,-0.0061,0.0120,-0.8554
1740035337.8177,0.0154,-0.0104,-0.0061,0.0064,-1.0715
1740035337.8277,0.0153,-0.0179,-0.0060,0.0167,-0.6951
1740035337.8378,0.0152,-0.0145,-0.0059,0.0111,-0.8918
1740035337.8480,0.0150,-0.0209,-0.0058,0.0197,-0.5655
1740035337.8578,0.0148,-0.0243,-0.0055,0.0239,-0.3769
1740035337.8677,0.0145,-0.0261,-0.0053,0.0257,-0.2662
1740035337.8777,0.0142,-0.0303,-0.0050,0.0313,-0.0061
1740035337.8877,0.0139,-0.0291,-0.0047,0.0286,-0.0426
1740035337.8977,0.0136,-0.0326,-0.0043,0.0331,0.1925
1740035337.9077,0.0133,-0.0298,-0.0040,0.0281,0.0750
1740035337.9177,0.0130,-0.0277,-0.0038,0.0244,-0.0047
1740035337.9277,0.0127,-0.0375,-0.0035,0.0384,0.5426
1740035337.9378,0.0125,-0.0327,-0.0033,0.0307,0.3280
1740035337.9478,0.0121,-0.0365,-0.0030,0.0359,0.5710
1740035337.9577,0.0118,-0.0304,-0.0027,0.0262,0.2917
1740035337.9677,0.0116,-0.0371,-0.0025,0.0359,0.6799
1740035337.9777,0.0112,-0.0301,-0.0022,0.0250,0.3575
1740035337.9878,0.0110,-0.0264,-0.0020,0.0191,0.1860
1740035337.9978,0.0107,-0.0234,-0.0018,0.0142,0.0456
1740035338.0077,0.0105,-0.0221,-0.0017,0.0121,-0.0111
1740035338.0178,0.0096,-0.1840,-0.0005,0.2546,8.9688
1740035338.0277,0.0081,-0.1385,0.0015,0.1857,7.0202
1740035338.0377,0.0071,-0.0780,0.0028,0.0949,4.1345
1740035338.0477,0.0065,-0.0773,0.0035,0.0940,4.2960
1740035338.0577,0.0059,-0.0408,0.0042,0.0395,2.5248
1740035338.0678,0.0056,-0.0566,0.0045,0.0639,3.4750
1740035338.0777,0.0051,-0.0274,0.0049,0.0206,2.0421
1740035338.0877,0.0049,-0.0437,0.0050,0.0457,2.9808
1740035338.0977,0.0046,-0.0189,0.0052,0.0092,1.7523
1740035338.1077,0.0045,-0.0061,0.0052,-0.0093,1.0984
1740035338.1177,0.0043,-0.0220,0.0054,0.0152,2.0436
1740035338.1277,0.0041,-0.0062,0.0055,-0.0077,1.2422
1740035338.1377,0.0040,-0.0104,0.0055,-0.0006,1.5239
1740035338.1477,0.0039,0.0016,0.0054,-0.0177,0.8973
1740035338.1577,0.0040,0.0082,0.0052,-0.0268,0.5229
1740035338.1678,0.0041,0.0113,0.0049,-0.0307,0.3234
1740035338.1777,0.0043,0.0207,0.0045,-0.0441,-0.2591
1740035338.1877,0.0045,0.0181,0.0041,-0.0393,-0.1896
1740035338.1977,0.0048,0.0327,0.0035,-0.0606,-1.1118
1740035338.2077,0.0051,0.0508,0.0029,-0.0870,-2.2012
1740035338.2177,0.0055,0.0313,0.0022,-0.0572,-1.3199
1740035338.2277,0.0058,0.0482,0.0017,-0.0821,-2.3430
1740035338.2383,0.0061,0.0318,0.0011,-0.0571,-1.5963
1740035338.2477,0.0063,0.0201,0.0007,-0.0393,-1.0599
1740035338.2577,0.0067,0.0265,0.0001,-0.0487,-1.5621
1740035338.2677,0.0068,0.0132,-0.0003,-0.0286,-0.9475
1740035338.2778,0.0071,0.0406,-0.0007,-0.0697,-2.5295
1740035338.2889,0.0074,0.0237,-0.0012,-0.0444,-1.7656
1740035338.2977,0.0075,0.0064,-0.0015,-0.0185,-0.9343
1740035338.3081,0.0075,-0.0102,-0.0016,0.0063,-0.0795
1740035338.3181,0.0073,-0.0212,-0.0014,0.0226,0.5503
1740035338.3277,0.0071,-0.0431,-0.0011,0.0551,1.7708
1740035338.3378,0.0068,-0.0305,-0.0008,0.0360,1.1773
1740035338.3477,0.0066,-0.0524,-0.0005,0.0687,2.4240
1740035338.3577,0.0061,-0.0313,0.0000,0.0368,1.4168
1740035338.3678,0.0059,-0.0607,0.0004,0.0810,3.0792
1740035338.3777,0.0054,-0.0342,0.0010,0.0411,1.8087
1740035338.3877,0.0051,-0.0569,0.0013,0.0752,3.1208
1740035338.3977,0.0047,-0.0303,0.0018,0.0353,1.8369
1740035338.4078,0.0045,-0.0209,0.0020,0.0214,1.3833
1740035338.4177,0.0034,-0.2180,0.0035,0.3172,12.3734
1740035338.4277,0.0018,-0.1478,0.0059,0.2117,9.2415
1740035338.4377,0.0008,-0.0698,0.0073,0.0952,5.4881
1740035338.4477,0.0004,-0.0379,0.0078,0.0479,3.9387
1740035338.4577,-0.0001,-0.0389,0.0084,0.0504,4.2092
1740035338.4677,-0.0003,-0.0080,0.0087,0.0052,2.6856
1740035338.4777,-0.0003,0.0046,0.0086,-0.0129,2.0434
1740035338.4877,-0.0001,0.0224,0.0083,-0.0381,1.0890
1740035338.4977,0.0002,0.0317,0.0079,-0.0508,0.5362
1740035338.5077,0.0005,0.0344,0.0074,-0.0536,0.3303
1740035338.5177,0.0008,0.0351,0.0069,-0.0536,0.2116
1740035338.5277,0.0012,0.0351,0.0063,-0.0523,0.1354
1740035338.5378,0.0016,0.0382,0.0058,-0.0560,-0.1278
1740035338.5478,0.0018,0.0335,0.0053,-0.0481,0.0544
1740035338.5577,0.0021,0.0325,0.0050,-0.0459,0.0472
1740035338.5677,0.0025,0.0273,0.0045,-0.0371,0.2501
1740035338.5777,0.0027,0.0279,0.0041,-0.0373,0.1603
1740035338.5877,0.0030,0.0278,0.0037,-0.0364,0.1064
1740035338.5977,0.0033,0.0272,0.0033,-0.0349,0.0706
1740035338.6078,0.0035,0.0267,0.0031,-0.0337,0.0577
1740035338.6177,0.0038,0.0257,0.0027,-0.0315,0.0373
1740035338.6277,0.0041,0.0248,0.0024,-0.0297,0.0310
1740035338.6379,0.0043,0.0207,0.0021,-0.0231,0.2062
1740035338.6477,0.0045,0.0213,0.0019,-0.0237,0.1379
1740035338.6577,0.0048,0.0259,0.0016,-0.0303,-0.1772
1740035338.6677,0.0051,0.0386,0.0013,-0.0490,-0.9192
1740035338.6792,0.0053,0.0324,0.0010,-0.0394,-0.6549
1740035338.6877,0.0057,0.0482,0.0005,-0.0630,-1.6007
1740035338.6977,0.0061,0.0337,0.0000,-0.0410,-0.9470
1740035338.7080,0.0064,0.0608,-0.0004,-0.0816,-2.4995
1740035338.7177,0.0072,0.0746,-0.0015,-0.1021,-3.5446
1740035338.7277,0.0079,0.0882,-0.0024,-0.1226,-4.5036
1740035338.7377,0.0085,0.0496,-0.0033,-0.0647,-2.6808
1740035338.7478,0.0089,0.0645,-0.0038,-0.0875,-3.6421
1740035338.7577,0.0094,0.0337,-0.0044,-0.0415,-2.1751
1740035338.7678,0.0097,0.0481,-0.0047,-0.0638,-3.0678
1740035338.7777,0.0100,0.0224,-0.0052,-0.0259,-1.8386
1740035338.7877,0.0102,0.0341,-0.0053,-0.0442,-2.5540
1740035338.7977,0.0104,0.0131,-0.0056,-0.0133,-1.5374
1740035338.8077,0.0105,0.0162,-0.0057,-0.0187,-1.7627
1740035338.8177,0.0106,0.0034,-0.0057,-0.0003,-1.1406
1740035338.8278,0.0106,-0.0049,-0.0057,0.0114,-0.7192
1740035338.8377,0.0105,-0.0103,-0.0055,0.0187,-0.4341
1740035338.8477,0.0104,-0.0119,-0.0054,0.0206,-0.3445
1740035338.8577,0.0101,-0.0259,-0.0050,0.0406,0.4697
1740035338.8677,0.0099,-0.0433,-0.0046,0.0659,1.4644
1740035338.8778,0.0096,-0.0338,-0.0042,0.0510,1.0320
1740035338.8878,0.0093,-0.0221,-0.0038,0.0328,0.4740
1740035338.8977,0.0088,-0.0469,-0.0030,0.0692,1.9794
1740035338.9077,0.0084,-0.0570,-0.0024,0.0839,2.6517
1740035338.9177,0.0080,-0.0338,-0.0017,0.0485,1.5538
1740035338.9277,0.0077,-0.0406,-0.0013,0.0583,2.0037
1740035338.9377,0.0074,-0.0232,-0.0009,0.0319,1.1718
1740035338.9478,0.0072,-0.0130,-0.0007,0.0164,0.6790
1740035338.9577,0.0071,-0.0079,-0.0006,0.0087,0.4244
1740035338.9677,0.0071,-0.0042,-0.0005,0.0030,0.2328
1740035338.9778,0.0071,0.0079,-0.0006,-0.0152,-0.4574
1740035338.9877,0.0072,0.0255,-0.0008,-0.0416,-1.4520
1740035338.9977,0.0074,0.0131,-0.0011,-0.0231,-0.8790
1740035339.0078,0.0075,0.0455,-0.0014,-0.0719,-2.6869
1740035339.0178,0.0078,0.0317,-0.0017,-0.0512,-2.0470
1740035339.0277,0.0080,0.0162,-0.0021,-0.0280,-1.3178
1740035339.0377,0.0084,0.0464,-0.0028,-0.0735,-3.1445
1740035339.0477,0.0088,0.0215,-0.0033,-0.0363,-1.9722
1740035339.0577,0.0093,0.0458,-0.0042,-0.0731,-3.5266
1740035339.0677,0.0096,0.0166,-0.0047,-0.0298,-2.1237
1740035339.0777,0.0097,-0.0005,-0.0048,-0.0049,-1.2929
1740035339.0878,0.0096,0.0104,-0.0048,-0.0219,-1.9199
1740035339.0977,0.0096,-0.0048,-0.0049,0.0002,-1.1739
1740035339.1077,0.0096,0.0008,-0.0049,-0.0089,-1.5025
1740035339.1177,0.0095,-0.0085,-0.0049,0.0044,-1.0440
1740035339.1277,0.0094,-0.0068,-0.0048,0.0011,-1.1565
1740035339.1377,0.0093,-0.0153,-0.0047,0.0132,-0.7233
1740035339.1477,0.0092,-0.0191,-0.0046,0.0183,-0.5185
1740035339.1577,0.0090,-0.0216,-0.0044,0.0213,-0.3786
1740035339.1677,0.0087,-0.0260,-0.0042,0.0272,-0.1233
1740035339.1778,0.0085,-0.0257,-0.0039,0.0262,-0.1117
1740035339.1877,0.0082,-0.0262,-0.0037,0.0263,-0.0537
1740035339.1977,0.0080,-0.0254,-0.0034,0.0245,-0.0684
1740035339.2078,0.0077,-0.0176,-0.0032,0.0123,-0.4596
1740035339.2189,0.0076,-0.0190,-0.0031,0.0141,-0.3848
1740035339.2277,0.0074,-0.0094,-0.0030,-0.0009,-0.8896
1740035339.2377,0.0073,-0.0159,-0.0029,0.0083,-0.5640
1740035339.2478,0.0071,-0.0194,-0.0028,0.0132,-0.3761
1740035339.2577,0.0071,-0.0059,-0.0029,-0.0073,-1.1428
1740035339.2677,0.0070,0.0024,-0.0029,-0.0203,-1.6334
1740035339.2777,0.0069,-0.0103,-0.0030,-0.0016,-1.0068
1740035339.2877,0.0068,-0.0176,-0.0030,0.0089,-0.6354
1740035339.2977,0.0067,-0.0082,-0.0031,-0.0057,-1.2000
1740035339.3077,0.0066,-0.0117,-0.0031,-0.0009,-1.0411
1740035339.3213,0.0065,-0.0170,-0.0031,0.0067,-0.7734
1740035339.3277,0.0063,-0.0238,-0.0029,0.0163,-0.4110
1740035339.3377,0.0060,-0.0257,-0.0028,0.0188,-0.2959
1740035339.3477,0.0058,-0.0433,-0.0025,0.0448,0.6783
1740035339.3580,0.0055,-0.0382,-0.0023,0.0369,0.4597
1740035339.3677,0.0051,-0.0613,-0.0019,0.0710,1.7629
1740035339.3777,0.0046,-0.0465,-0.0014,0.0485,1.0866
1740035339.3877,0.0041,-0.0738,-0.0009,0.0891,2.6543
1740035339.3978,0.0035,-0.0500,-0.0002,0.0531,1.5429
1740035339.4077,0.0031,-0.0761,0.0003,0.0922,3.0575
1740035339.4177,0.0025,-0.0491,0.0010,0.0515,1.7864
1740035339.4277,0.0021,-0.0323,0.0013,0.0263,0.9779
1740035339.4377,0.0013,-0.0616,0.0022,0.0704,2.7806
1740035339.4477,0.0008,-0.0735,0.0028,0.0884,3.5740
1740035339.4577,0.0003,-0.0427,0.0034,0.0424,2.1029
1740035339.4677,-0.0001,-0.0247,0.0037,0.0159,1.2321
1740035339.4777,-0.0004,-0.0300,0.0040,0.0242,1.6192
1740035339.4877,-0.0006,-0.0180,0.0041,0.0067,1.0335
1740035339.4978,-0.0008,-0.0098,0.0041,-0.0050,0.6197
1740035339.5077,-0.0008,-0.0006,0.0040,-0.0181,0.1294
1740035339.5177,-0.0008,0.0001,0.0038,-0.0186,0.0728
1740035339.5278,-0.0008,0.0004,0.0036,-0.0185,0.0306
1740035339.5377,-0.0006,0.0214,0.0031,-0.0493,-1.1974
1740035339.5477,-0.0004,0.0458,0.0026,-0.0854,-2.6188
1740035339.5578,-0.0001,0.0255,0.0020,-0.0544,-1.6732
1740035339.5677,0.0001,0.0105,0.0016,-0.0315,-0.9647
1740035339.5777,0.0004,0.0285,0.0010,-0.0582,-2.0897
1740035339.5877,0.0006,0.0334,0.0005,-0.0652,-2.4722
1740035339.5977,0.0009,0.0127,0.0000,-0.0339,-1.4848
1740035339.6077,0.0009,0.0134,-0.0002,-0.0349,-1.5961
1740035339.6178,0.0010,0.0004,-0.0005,-0.0154,-0.9666
1740035339.6277,0.0009,-0.0077,-0.0006,-0.0033,-0.5656
1740035339.6377,0.0008,-0.0150,-0.0005,0.0075,-0.1717
1740035339.6477,0.0007,-0.0160,-0.0004,0.0089,-0.1040
1740035339.6582,0.0006,-0.0277,-0.0004,0.0265,0.5426
1740035339.6677,0.0002,-0.0232,-0.0000,0.0196,0.3783
1740035339.6777,-0.0003,-0.0434,0.0006,0.0497,1.6065
1740035339.6877,-0.0006,-0.0333,0.0009,0.0346,1.1407
1740035339.6978,-0.0013,-0.0560,0.0017,0.0687,2.5933
1740035339.7078,-0.0017,-0.0358,0.0022,0.0384,1.6364
1740035339.7177,-0.0032,-0.1619,0.0043,0.2276,8.9587
1740035339.7278,-0.0045,-0.1024,0.0062,0.1385,6.2870
1740035339.7378,-0.0056,-0.0856,0.0077,0.1139,5.8228
1740035339.7477,-0.0062,-0.0679,0.0084,0.0882,5.1368
1740035339.7577,-0.0067,-0.0255,0.0090,0.0256,3.0654
1740035339.7677,-0.0068,-0.0034,0.0091,-0.0064,1.9628
1740035339.7777,-0.0069,-0.0053,0.0091,-0.0022,2.1584
1740035339.7877,-0.0069,0.0111,0.0090,-0.0254,1.3123
1740035339.7977,-0.0069,0.0057,0.0089,-0.0160,1.6501
1740035339.8077,-0.0068,0.0176,0.0086,-0.0325,1.0191
1740035339.8177,-0.0066,0.0138,0.0084,-0.0255,1.2378
1740035339.8280,-0.0065,0.0113,0.0082,-0.0208,1.3680
1740035339.8378,-0.0064,0.0211,0.0079,-0.0342,0.8385
1740035339.8477,-0.0061,0.0179,0.0076,-0.0282,0.9808
1740035339.8577,-0.0059,0.0238,0.0073,-0.0359,0.6469
1740035339.8677,-0.0057,0.0275,0.0069,-0.0403,0.4112
1740035339.8778,-0.0054,0.0292,0.0065,-0.0417,0.2711
1740035339.8877,-0.0051,0.0298,0.0061,-0.0417,0.1816
1740035339.8978,-0.0049,0.0145,0.0059,-0.0176,1.0135
1740035339.9077,-0.0048,0.0060,0.0057,-0.0039,1.4664
1740035339.9177,-0.0047,0.0169,0.0055,-0.0194,0.8979
1740035339.9278,-0.0045,0.0211,0.0054,-0.0252,0.6630
1740035339.9378,-0.0048,-0.0974,0.0059,0.1533,7.1959
1740035339.9477,-0.0055,-0.0581,0.0070,0.0949,5.4165
1740035339.9578,-0.0058,-0.0138,0.0076,0.0292,3.2509
1740035339.9677,-0.0058,0.0118,0.0076,-0.0081,1.9679
1740035339.9777,-0.0056,0.0263,0.0074,-0.0287,1.2075
1740035339.9878,-0.0053,0.0341,0.0071,-0.0393,0.7686
1740035339.9978,-0.0050,0.0390,0.0067,-0.0455,0.4571
1740035340.0077,-0.0046,0.0408,0.0062,-0.0472,0.2967
1740035340.0177,-0.0041,0.0593,0.0056,-0.0741,-0.8042
1740035340.0278,-0.0035,0.0719,0.0049,-0.0919,-1.6219
1740035340.0377,-0.0028,0.0560,0.0041,-0.0672,-0.9274
1740035340.0478,-0.0023,0.0776,0.0034,-0.0987,-2.2167
1740035340.0577,-0.0016,0.0569,0.0026,-0.0670,-1.2841
1740035340.0677,-0.0011,0.0796,0.0020,-0.1004,-2.6294
1740035340.0777,-0.0004,0.0557,0.0012,-0.0641,-1.5331
1740035340.0880,0.0000,0.0419,0.0007,-0.0432,-0.9019
1740035340.0977,0.0003,0.0352,0.0005,-0.0330,-0.6019
1740035340.1078,0.0006,0.0289,0.0002,-0.0233,-0.3208
1740035340.1177,0.0012,0.0513,-0.0005,-0.0569,-1.6915
1740035340.1277,0.0016,0.0560,-0.0010,-0.0638,-2.0607
1740035340.1377,0.0023,0.0571,-0.0017,-0.0655,-2.3276
1740035340.1477,0.0028,0.0367,-0.0022,-0.0350,-1.3669
1740035340.1577,0.0032,0.0352,-0.0026,-0.0329,-1.4020
1740035340.1678,0.0034,0.0242,-0.0029,-0.0168,-0.8847
1740035340.1778,0.0036,0.0134,-0.0029,-0.0010,-0.3428
1740035340.1877,0.0037,-0.0008,-0.0029,0.0200,0.4115
1740035340.1977,0.0037,0.0026,-0.0027,0.0143,0.2526
1740035340.2077,0.0038,0.0048,-0.0026,0.0107,0.1512
1740035340.2177,0.0036,-0.0122,-0.0022,0.0356,1.1507
1740035340.2277,0.0035,-0.0239,-0.0019,0.0529,1.8421
1740035340.2377,0.0034,-0.0084,-0.0015,0.0292,1.1029
1740035340.2477,0.0034,0.0012,-0.0013,0.0145,0.6320
1740035340.2577,0.0033,-0.0069,-0.0010,0.0264,1.1317
1740035340.2678,0.0032,-0.0026,-0.0008,0.0198,0.9584
1740035340.2777,0.0033,0.0050,-0.0007,0.0081,0.5801
1740035340.2878,0.0033,0.0065,-0.0006,0.0058,0.5127
1740035340.2977,0.0034,0.0103,-0.0006,-0.0000,0.3155
1740035340.3077,0.0035,0.0189,-0.0006,-0.0129,-0.1508
1740035340.3177,0.0037,0.0170,-0.0007,-0.0102,-0.0791
1740035340.3280,0.0038,0.0160,-0.0008,-0.0087,-0.0455
1740035340.3378,0.0040,0.0150,-0.0009,-0.0074,-0.0161
1740035340.3478,0.0041,0.0144,-0.0010,-0.0066,-0.0023
1740035340.3577,0.0043,0.0138,-0.0010,-0.0058,0.0086
1740035340.3677,0.0044,0.0327,-0.0011,-0.0343,-1.0302
1740035340.3779,0.0047,0.0234,-0.0014,-0.0204,-0.6045
1740035340.3878,0.0049,0.0325,-0.0016,-0.0343,-1.1491
1740035340.3977,0.0051,0.0274,-0.0017,-0.0267,-0.9148
1740035340.4077,0.0053,0.0410,-0.0019,-0.0473,-1.7142
1740035340.4177,0.0057,0.0260,-0.0023,-0.0251,-1.0147
1740035340.4278,0.0059,0.0394,-0.0025,-0.0454,-1.8003
1740035340.4377,0.0062,0.0239,-0.0028,-0.0224,-1.0686
1740035340.4477,0.0064,0.0350,-0.0030,-0.0395,-1.7323
1740035340.4579,0.0067,0.0217,-0.0033,-0.0198,-1.1021
1740035340.4677,0.0068,0.0119,-0.0034,-0.0055,-0.6303
1740035340.4777,0.0071,0.0242,-0.0037,-0.0244,-1.3880
1740035340.4877,0.0073,0.0131,-0.0038,-0.0084,-0.8642
1740035340.4977,0.0075,0.0274,-0.0041,-0.0303,-1.7386
1740035340.5077,0.0078,0.0321,-0.0043,-0.0379,-2.0780
1740035340.5177,0.0080,0.0148,-0.0046,-0.0125,-1.2448
1740035340.5278,0.0081,0.0048,-0.0046,0.0020,-0.7517
1740035340.5377,0.0081,-0.0010,-0.0046,0.0100,-0.4599
1740035340.5478,0.0081,-0.0037,-0.0045,0.0134,-0.3222
1740035340.5578,0.0084,0.0942,-0.0050,-0.1340,-5.7283
1740035340.5677,0.0092,0.0922,-0.0061,-0.1313,-5.9553
1740035340.5778,0.0099,0.0422,-0.0070,-0.0570,-3.5576
1740035340.5877,0.0101,0.0112,-0.0073,-0.0114,-2.0318
1740035340.5978,0.0103,0.0114,-0.0076,-0.0127,-2.1618
1740035340.6077,0.0103,-0.0055,-0.0076,0.0115,-1.3192
1740035340.6177,0.0103,-0.0054,-0.0075,0.0101,-1.3822
1740035340.6277,0.0102,-0.0156,-0.0073,0.0242,-0.8530
1740035340.6378,0.0101,-0.0206,-0.0071,0.0308,-0.5712
1740035340.6478,0.0099,-0.0235,-0.0068,0.0342,-0.3926
1740035340.6578,0.0096,-0.0287,-0.0064,0.0408,-0.0692
1740035340.6677,0.0093,-0.0356,-0.0060,0.0503,0.3496
1740035340.6777,0.0090,-0.0311,-0.0056,0.0425,0.1747
1740035340.6878,0.0087,-0.0282,-0.0052,0.0372,0.0714
1740035340.6977,0.0083,-0.0412,-0.0046,0.0558,0.8755
1740035340.7077,0.0079,-0.0531,-0.0041,0.0730,1.6083
1740035340.7177,0.0074,-0.0381,-0.0035,0.0498,0.9251
1740035340.7277,0.0071,-0.0292,-0.0031,0.0357,0.5207
1740035340.7377,0.0068,-0.0237,-0.0027,0.0270,0.2815
1740035340.7477,0.0066,-0.0202,-0.0025,0.0213,0.1294
1740035340.7577,0.0062,-0.0370,-0.0020,0.0459,1.1390
1740035340.7677,0.0061,-0.0338,-0.0018,0.0410,0.9940
1740035340.7777,0.0058,-0.0242,-0.0015,0.0262,0.5460
1740035340.7878,0.0056,-0.0353,-0.0013,0.0427,1.1891
1740035340.7978,0.0053,-0.0245,-0.0009,0.0262,0.6826
1740035340.8077,0.0051,-0.0297,-0.0007,0.0337,1.0059
1740035340.8177,0.0048,-0.0206,-0.0005,0.0199,0.5755
1740035340.8303,0.0047,-0.0154,-0.0003,0.0120,0.3275
1740035340.8377,0.0044,-0.0329,0.0000,0.0382,1.3512
1740035340.8477,0.0041,-0.0210,0.0003,0.0203,0.7830
1740035340.8577,0.0039,-0.0135,0.0004,0.0090,0.4134
1740035340.8678,0.0038,-0.0098,0.0005,0.0036,0.2302
1740035340.8777,0.0038,-0.0072,0.0005,-0.0003,0.0938
1740035340.8877,0.0037,-0.0063,0.0005,-0.0016,0.0428
1740035340.8978,0.0036,-0.0058,0.0005,-0.0023,0.0085
1740035340.9077,0.0036,-0.0020,0.0004,-0.0080,-0.2037
1740035340.9177,0.0035,-0.0035,0.0004,-0.0056,-0.1377
1740035340.9277,0.0035,-0.0044,0.0003,-0.0042,-0.1025
1740035340.9378,0.0036,0.0188,0.0001,-0.0389,-1.4128
1740035340.9482,0.0037,0.0115,-0.0001,-0.0279,-1.0824
1740035340.9577,0.0038,0.0035,-0.0004,-0.0158,-0.7347
1740035340.9677,0.0038,0.0005,-0.0005,-0.0114,-0.5959
1740035340.9777,0.0038,-0.0034,-0.0006,-0.0055,-0.4059
1740035340.9877,0.0038,-0.0065,-0.0006,-0.0010,-0.2603
1740035340.9977,0.0037,-0.0071,-0.0006,-0.0002,-0.2403
1740035341.0077,0.0036,-0.0115,-0.0006,0.0063,-0.0085
1740035341.0177,0.0035,-0.0110,-0.0005,0.0055,-0.0260
1740035341.0278,0.0034,-0.0107,-0.0005,0.0050,-0.0346
1740035341.0381,0.0033,-0.0163,-0.0004,0.0133,0.2752
1740035341.0479,0.0031,-0.0137,-0.0003,0.0093,0.1584
1740035341.0577,0.0029,-0.0171,-0.0001,0.0143,0.3776
1740035341.0677,0.0028,-0.0141,-0.0000,0.0098,0.2412
1740035341.0777,0.0027,-0.0124,0.0000,0.0072,0.1608
1740035341.0877,0.0026,-0.0106,0.0001,0.0045,0.0749
1740035341.0978,0.0024,-0.0237,0.0003,0.0241,0.8396
1740035341.1077,0.0022,-0.0425,0.0005,0.0524,1.9040
1740035341.1177,0.0018,-0.0259,0.0009,0.0275,1.1156
1740035341.1277,0.0016,-0.0448,0.0012,0.0560,2.1982
1740035341.1377,0.0009,-0.0558,0.0020,0.0724,3.0172
1740035341.1477,0.0005,-0.0301,0.0025,0.0340,1.7823
1740035341.1577,-0.0000,-0.0412,0.0032,0.0509,2.5787
1740035341.1677,-0.0003,-0.0238,0.0035,0.0251,1.7396
1740035341.1777,-0.0014,-0.2213,0.0051,0.3218,12.7695
1740035341.1878,-0.0030,-0.1128,0.0074,0.1590,7.5854
1740035341.1993,-0.0039,-0.0877,0.0087,0.1219,6.6081
1740035341.2077,-0.0044,-0.0368,0.0094,0.0465,4.1246
1740035341.2177,-0.0045,0.0073,0.0094,-0.0182,1.8624
1740035341.2277,-0.0044,-0.0014,0.0092,-0.0036,2.3436
1740035341.2378,-0.0043,0.0112,0.0091,-0.0215,1.6963
1740035341.2497,-0.0042,0.0191,0.0089,-0.0326,1.2712
1740035341.2577,-0.0041,0.0219,0.0086,-0.0354,1.1158
1740035341.2678,-0.0038,0.0292,0.0082,-0.0451,0.6874
1740035341.2777,-0.0035,0.0272,0.0078,-0.0406,0.7621
1740035341.2878,-0.0033,0.0312,0.0074,-0.0455,0.5065
1740035341.2977,-0.0029,0.0318,0.0069,-0.0451,0.4162
1740035341.3077,-0.0026,0.0369,0.0064,-0.0517,0.0787
1740035341.3177,-0.0022,0.0357,0.0059,-0.0488,0.0711
1740035341.3277,-0.0019,0.0345,0.0055,-0.0459,0.0660
1740035341.3377,-0.0015,0.0333,0.0050,-0.0432,0.0623
1740035341.3478,-0.0012,0.0321,0.0046,-0.0407,0.0594
1740035341.3578,-0.0009,0.0485,0.0041,-0.0646,-0.9081
1740035341.3677,-0.0005,0.0401,0.0036,-0.0513,-0.5577
1740035341.3778,-0.0000,0.0365,0.0031,-0.0451,-0.4686
1740035341.3878,0.0003,0.0347,0.0027,-0.0420,-0.4531
1740035341.3977,0.0006,0.0296,0.0023,-0.0339,-0.2513
1740035341.4078,0.0009,0.0314,0.0020,-0.0361,-0.4048
1740035341.4177,0.0012,0.0268,0.0016,-0.0289,-0.2243
1740035341.4277,0.0015,0.0254,0.0014,-0.0264,-0.1962
1740035341.4378,0.0017,0.0227,0.0011,-0.0222,-0.1020
1740035341.4477,0.0019,0.0256,0.0009,-0.0263,-0.2995
1740035341.4578,0.0021,0.0226,0.0007,-0.0215,-0.1782
1740035341.4677,0.0024,0.0289,0.0005,-0.0308,-0.5600
1740035341.4777,0.0026,0.0233,0.0002,-0.0223,-0.3206
1740035341.4878,0.0028,0.0209,0.0001,-0.0186,-0.2221
1740035341.4979,0.0030,0.0181,-0.0001,-0.0144,-0.1127
1740035341.5078,0.0032,0.0322,-0.0002,-0.0355,-0.9045
1740035341.5193,0.0034,0.0254,-0.0005,-0.0254,-0.6041
1740035341.5277,0.0036,0.0201,-0.0006,-0.0173,-0.3628
1740035341.5378,0.0039,0.0277,-0.0010,-0.0288,-0.8558
1740035341.5477,0.0041,0.0203,-0.0012,-0.0178,-0.5238
1740035341.5577,0.0044,0.0248,-0.0015,-0.0246,-0.8414
1740035341.5677,0.0046,0.0271,-0.0017,-0.0282,-1.0254
1740035341.5777,0.0048,0.0180,-0.0019,-0.0149,-0.6060
1740035341.5878,0.0050,0.0132,-0.0020,-0.0078,-0.3831
1740035341.5977,0.0051,0.0146,-0.0021,-0.0101,-0.4869
1740035341.6077,0.0052,0.0060,-0.0021,0.0024,-0.0577
1740035341.6177,0.0052,0.0055,-0.0021,0.0029,-0.0368
1740035341.6277,0.0053,0.0052,-0.0021,0.0032,-0.0223
1740035341.6377,0.0053,-0.0029,-0.0019,0.0149,0.4357
1740035341.6477,0.0053,0.0004,-0.0018,0.0097,0.2781
1740035341.6577,0.0052,-0.0049,-0.0016,0.0173,0.6011
1740035341.6678,0.0052,-0.0124,-0.0015,0.0283,1.0324
1740035341.6777,0.0051,-0.0037,-0.0012,0.0150,0.6125
1740035341.6877,0.0051,0.0008,-0.0011,0.0080,0.3887
1740035341.6977,0.0050,-0.0066,-0.0009,0.0189,0.8343
1740035341.7077,0.0050,-0.0001,-0.0008,0.0090,0.5154
1740035341.7178,0.0049,-0.0028,-0.0007,0.0129,0.6878
1740035341.7278,0.0049,0.0066,-0.0006,-0.0013,0.2048
1740035341.7379,0.0050,0.0080,-0.0006,-0.0035,0.1224
1740035341.7479,0.0051,0.0086,-0.0006,-0.0044,0.0782
1740035341.7578,0.0053,0.0186,-0.0009,-0.0195,-0.5161
1740035341.7677,0.0054,0.0143,-0.0010,-0.0131,-0.3282
1740035341.7777,0.0057,0.0319,-0.0014,-0.0396,-1.3763
1740035341.7877,0.0060,0.0207,-0.0017,-0.0230,-0.8664
1740035341.7978,0.0065,0.0416,-0.0023,-0.0544,-2.1549
1740035341.8077,0.0068,0.0242,-0.0027,-0.0285,-1.3430
1740035341.8177,0.0070,0.0129,-0.0029,-0.0119,-0.8057
1740035341.8277,0.0071,0.0446,-0.0030,-0.0599,-2.5615
1740035341.8378,0.0074,0.0229,-0.0034,-0.0277,-1.5313
1740035341.8477,0.0076,0.0467,-0.0037,-0.0639,-2.8946
1740035341.8578,0.0079,0.0272,-0.0040,-0.0349,-1.9675
1740035341.8678,0.0081,0.0118,-0.0042,-0.0123,-1.2222
1740035341.8777,0.0084,0.0258,-0.0047,-0.0339,-2.1169
1740035341.8878,0.0085,0.0250,-0.0049,-0.0333,-2.1658
1740035341.8977,0.0089,0.0232,-0.0053,-0.0312,-2.2229
1740035341.9078,0.0090,0.0069,-0.0055,-0.0075,-1.4318
1740035341.9177,0.0091,0.0021,-0.0056,-0.0010,-1.2380
1740035341.9278,0.0090,-0.0057,-0.0055,0.0100,-0.8484
1740035341.9377,0.0089,-0.0133,-0.0054,0.0207,-0.4388
1740035341.9477,0.0088,-0.0162,-0.0051,0.0242,-0.2686
1740035341.9577,0.0086,-0.0225,-0.0048,0.0329,0.1056
1740035341.9693,0.0083,-0.0211,-0.0045,0.0300,0.0792
1740035341.9778,0.0082,-0.0195,-0.0042,0.0269,0.0247
1740035341.9878,0.0080,-0.0222,-0.0039,0.0302,0.2029
1740035341.9978,0.0077,-0.0195,-0.0037,0.0255,0.0949
1740035342.0077,0.0076,-0.0212,-0.0034,0.0275,0.2196
1740035342.0177,0.0074,-0.0185,-0.0032,0.0228,0.1054
1740035342.0278,0.0072,-0.0172,-0.0030,0.0206,0.0583
1740035342.0378,0.0070,-0.0156,-0.0028,0.0175,-0.0061
1740035342.0477,0.0069,-0.0061,-0.0026,0.0028,-0.4989
1740035342.0578,0.0068,-0.0096,-0.0026,0.0076,-0.3205
1740035342.0677,0.0067,0.0016,-0.0025,-0.0096,-0.9291
1740035342.0777,0.0067,-0.0056,-0.0025,0.0008,-0.5763
1740035342.0877,0.0066,0.0013,-0.0025,-0.0098,-0.9594
1740035342.0977,0.0066,-0.0062,-0.0026,0.0010,-0.5950
1740035342.1077,0.0065,-0.0031,-0.0025,-0.0040,-0.7767
1740035342.1177,0.0065,-0.0089,-0.0025,0.0043,-0.4873
1740035342.1278,0.0064,-0.0119,-0.0025,0.0085,-0.3331
1740035342.1378,0.0063,-0.0135,-0.0024,0.0106,-0.2463
1740035342.1477,0.0061,-0.0226,-0.0023,0.0239,0.2543
1740035342.1577,0.0059,-0.0196,-0.0020,0.0190,0.1246
1740035342.1677,0.0058,-0.0183,-0.0019,0.0168,0.0712
1740035342.1777,0.0055,-0.0348,-0.0016,0.0412,1.0278
1740035342.1877,0.0052,-0.0495,-0.0012,0.0630,1.8976
1740035342.1977,0.0045,-0.0566,-0.0004,0.0734,2.4897
1740035342.2077,0.0041,-0.0349,0.0002,0.0405,1.4573
1740035342.2177,0.0035,-0.0460,0.0009,0.0570,2.2234
1740035342.2278,0.0032,-0.0274,0.0013,0.0291,1.3373
1740035342.2377,0.0030,-0.0141,0.0015,0.0093,0.6828
1740035342.2477,0.0029,-0.0186,0.0015,0.0164,0.9514
1740035342.2577,0.0027,-0.0105,0.0016,0.0044,0.5513
1740035342.2683,0.0027,-0.0082,0.0016,0.0010,0.4336
1740035342.2777,0.0026,-0.0072,0.0017,-0.0001,0.3999
1740035342.2878,0.0025,0.0039,0.0016,-0.0165,-0.1950
1740035342.2978,0.0025,0.0025,0.0015,-0.0142,-0.1413
1740035342.3077,0.0025,0.0010,0.0014,-0.0118,-0.0888
1740035342.3178,0.0026,0.0002,0.0013,-0.0103,-0.0647
1740035342.3277,0.0026,0.0160,0.0012,-0.0338,-0.9343
1740035342.3377,0.0027,0.0080,0.0009,-0.0215,-0.5669
1740035342.3477,0.0027,0.0029,0.0007,-0.0137,-0.3331
1740035342.3577,0.0030,0.0199,0.0003,-0.0391,-1.3522
1740035342.3677,0.0031,0.0104,0.0000,-0.0247,-0.9163
1740035342.3778,0.0031,0.0017,-0.0002,-0.0116,-0.5034
1740035342.3877,0.0031,-0.0023,-0.0003,-0.0056,-0.3144
1740035342.3977,0.0032,0.0012,-0.0004,-0.0108,-0.5395
1740035342.4077,0.0031,-0.0101,-0.0004,0.0061,0.0457
1740035342.4177,0.0030,-0.0093,-0.0004,0.0049,0.0109
1740035342.4278,0.0029,-0.0295,-0.0003,0.0351,1.1063
1740035342.4377,0.0027,-0.0197,-0.0000,0.0202,0.6411
1740035342.4477,0.0025,-0.0500,0.0002,0.0657,2.3221
1740035342.4577,0.0021,-0.0299,0.0007,0.0353,1.3647
1740035342.4677,0.0018,-0.0607,0.0010,0.0817,3.1075
1740035342.4777,0.0014,-0.0340,0.0016,0.0416,1.8340
1740035342.4877,0.0011,-0.0582,0.0019,0.0781,3.2316
1740035342.4977,0.0007,-0.0334,0.0024,0.0409,2.0451
1740035342.5077,0.0004,-0.0153,0.0027,0.0140,1.1564
1740035342.5177,-0.0000,-0.0430,0.0033,0.0559,2.8261
1740035342.5277,-0.0003,-0.0206,0.0037,0.0227,1.7505
1740035342.5378,-0.0008,-0.0402,0.0043,0.0526,2.9974
1740035342.5478,-0.0010,-0.0237,0.0046,0.0281,2.2056
1740035342.5578,-0.0011,-0.0081,0.0047,0.0052,1.4250
1740035342.5678,-0.0012,-0.0013,0.0047,-0.0046,1.0830
1740035342.5777,-0.0012,0.0027,0.0046,-0.0096,0.9008
1740035342.5878,-0.0011,0.0058,0.0045,-0.0136,0.7366
1740035342.5977,-0.0010,0.0110,0.0043,-0.0208,0.4448
1740035342.6077,-0.0009,0.0140,0.0041,-0.0246,0.2588
1740035342.6177,-0.0006,0.0245,0.0037,-0.0396,-0.3803
1740035342.6277,-0.0004,0.0270,0.0033,-0.0427,-0.5788
1740035342.6377,-0.0002,0.0218,0.0030,-0.0343,-0.3617
1740035342.6477,0.0000,0.0205,0.0026,-0.0319,-0.3547
1740035342.6577,0.0002,0.0167,0.0023,-0.0258,-0.2053
1740035342.6678,0.0003,0.0146,0.0021,-0.0221,-0.1260
1740035342.6777,0.0004,0.0108,0.0020,-0.0161,0.0538
1740035342.6878,0.0005,0.0106,0.0018,-0.0156,0.0381
1740035342.6978,0.0006,0.0104,0.0017,-0.0150,0.0279
1740035342.7077,0.0007,0.0102,0.0016,-0.0144,0.0213
1740035342.7177,0.0007,-0.0016,0.0016,0.0035,0.6755
1740035342.7278,0.0007,-0.0182,0.0016,0.0287,1.5894
1740035342.7413,0.0006,-0.0090,0.0018,0.0150,1.1425
1740035342.7478,0.0006,0.0023,0.0018,-0.0017,0.5658
1740035342.7577,0.0004,-0.0142,0.0021,0.0233,1.5373
1740035342.7677,0.0003,-0.0229,0.0023,0.0366,2.0643
1740035342.7783,0.0002,-0.0127,0.0024,0.0214,1.5686
1740035342.7877,0.0002,-0.0040,0.0025,0.0087,1.1523
1740035342.7977,-0.0000,-0.0158,0.0028,0.0267,2.3544
1740035342.8077,-0.0001,0.0022,0.0030,0.0001,1.2525
1740035342.8177,0.0000,0.0147,0.0028,-0.0181,0.4337
1740035342.8277,0.0002,0.0336,0.0026,-0.0461,-0.8483
1740035342.8377,0.0005,0.0263,0.0022,-0.0346,-0.4583
1740035342.8477,0.0007,0.0212,0.0019,-0.0266,-0.1988
1740035342.8577,0.0011,0.0363,0.0014,-0.0488,-1.3430
1740035342.8677,0.0014,0.0472,0.0010,-0.0648,-2.1761
1740035342.8777,0.0018,0.0282,0.0005,-0.0361,-1.0827
1740035342.8877,0.0021,0.0432,0.0002,-0.0585,-2.1635
1740035342.8977,0.0024,0.0246,-0.0003,-0.0304,-1.0788
1740035342.9079,0.0026,0.0151,-0.0005,-0.0162,-0.5374
1740035342.9181,0.0027,0.0099,-0.0006,-0.0085,-0.2381
1740035342.9277,0.0028,0.0121,-0.0007,-0.0118,-0.4081
1740035342.9377,0.0029,0.0085,-0.0008,-0.0064,-0.2036
1740035342.9477,0.0030,0.0035,-0.0008,0.0010,0.1030
1740035342.9577,0.0030,0.0042,-0.0008,-0.0002,0.0512
1740035342.9678,0.0031,0.0045,-0.0008,-0.0008,0.0223
1740035342.9777,0.0029,-0.0115,-0.0006,0.0231,1.1411
1740035342.9877,0.0029,-0.0244,-0.0004,0.0423,2.0411
1740035342.9977,0.0027,-0.0074,-0.0001,0.0167,1.0215
1740035343.0078,0.0027,-0.0032,-0.0001,0.0103,0.7687
1740035343.0178,0.0027,0.0059,-0.0000,-0.0034,0.1853
1740035343.0277,0.0028,-0.0142,-0.0000,0.0268,1.4935
1740035343.0377,0.0027,-0.0019,0.0001,0.0083,0.7481
1740035343.0477,0.0027,-0.0040,0.0002,0.0114,0.8996
1740035343.0577,0.0027,0.0032,0.0002,0.0006,0.4514
1740035343.0678,0.0027,0.0049,0.0002,-0.0019,0.3395
1740035343.0785,0.0028,0.0069,0.0002,-0.0048,0.2053
1740035343.0877,0.0029,0.0084,0.0001,-0.0071,0.0894
1740035343.0978,0.0031,0.0249,-0.0002,-0.0318,-1.0912
1740035343.1083,0.0033,0.0163,-0.0005,-0.0188,-0.6100
1740035343.1177,0.0037,0.0357,-0.0010,-0.0478,-2.0493
1740035343.1277,0.0039,0.0217,-0.0013,-0.0269,-1.2351
1740035343.1377,0.0045,0.0450,-0.0021,-0.0620,-3.0300
1740035343.1478,0.0048,0.0649,-0.0025,-0.0920,-4.5059
1740035343.1578,0.0053,0.0272,-0.0031,-0.0356,-2.2635
1740035343.1678,0.0055,0.0463,-0.0034,-0.0647,-3.6309
1740035343.1783,0.0057,0.0251,-0.0037,-0.0332,-2.3759
1740035343.1878,0.0058,0.0134,-0.0038,-0.0158,-1.6608
1740035343.1985,0.0059,0.0014,-0.0039,0.0018,-0.9286
1740035343.2078,0.0059,-0.0021,-0.0039,0.0067,-0.7122
1740035343.2190,0.0058,-0.0080,-0.0037,0.0150,-0.3261
1740035343.2278,0.0057,-0.0099,-0.0036,0.0174,-0.1886
1740035343.2384,0.0057,-0.0106,-0.0035,0.0180,-0.1268
1740035343.2478,0.0056,-0.0129,-0.0033,0.0209,0.0443
1740035343.2579,0.0055,-0.0121,-0.0031,0.0192,0.0131
1740035343.2678,0.0053,-0.0162,-0.0029,0.0248,0.3143
1740035343.2778,0.0052,-0.0132,-0.0027,0.0199,0.1579
1740035343.2878,0.0051,-0.0110,-0.0026,0.0162,0.0453
1740035343.2977,0.0049,-0.0124,-0.0024,0.0178,0.1692
1740035343.3078,0.0048,-0.0104,-0.0022,0.0144,0.0680
1740035343.3178,0.0047,-0.0108,-0.0020,0.0146,0.1234
1740035343.3277,0.0046,-0.0074,-0.0019,0.0092,-0.0789
1740035343.3378,0.0045,-0.0076,-0.0018,0.0092,-0.0560
1740035343.3478,0.0045,-0.0076,-0.0017,0.0091,-0.0468
1740035343.3577,0.0045,0.0063,-0.0018,-0.0122,-1.0047
1740035343.3677,0.0045,0.0173,-0.0019,-0.0289,-1.7726
1740035343.3813,0.0046,0.0028,-0.0021,-0.0075,-0.9047
1740035343.3878,0.0046,0.0180,-0.0021,-0.0304,-1.9211
1740035343.3977,0.0050,0.0216,-0.0026,-0.0359,-2.3543
1740035343.4077,0.0051,0.0024,-0.0028,-0.0075,-1.1990
1740035343.4177,0.0052,0.0117,-0.0031,-0.0217,-1.8991
1740035343.4277,0.0053,0.0153,-0.0032,-0.0276,-2.2132
1740035343.4378,0.0053,-0.0024,-0.0033,-0.0014,-1.1314
1740035343.4478,0.0052,0.0006,-0.0032,-0.0065,-1.3510
1740035343.4577,0.0052,-0.0098,-0.0032,0.0086,-0.7013
1740035343.4678,0.0050,-0.0157,-0.0031,0.0169,-0.3082
1740035343.4789,0.0049,-0.0173,-0.0029,0.0188,-0.1800
1740035343.4878,0.0047,-0.0271,-0.0027,0.0331,0.4938
1740035343.4977,0.0044,-0.0220,-0.0024,0.0250,0.2216
1740035343.5077,0.0042,-0.0192,-0.0022,0.0204,0.0859
1740035343.5213,0.0039,-0.0307,-0.0018,0.0372,0.9372
1740035343.5278,0.0037,-0.0257,-0.0015,0.0295,0.6816
1740035343.5377,0.0035,-0.0185,-0.0013,0.0183,0.2672
1740035343.5492,0.0033,-0.0158,-0.0011,0.0141,0.1206
1740035343.5579,0.0029,-0.0582,-0.0006,0.0774,3.0504
1740035343.5678,0.0025,-0.0556,-0.0000,0.0734,3.0642
1740035343.5777,0.0021,-0.0294,0.0005,0.0339,1.5147
1740035343.5877,0.0019,-0.0216,0.0006,0.0221,1.0533
1740035343.5977,0.0017,-0.0118,0.0008,0.0075,0.4610
1740035343.6077,0.0017,0.0004,0.0008,-0.0106,-0.3197
1740035343.6178,0.0016,-0.0022,0.0007,-0.0066,-0.1752
1740035343.6280,0.0016,-0.0033,0.0007,-0.0049,-0.1175
1740035343.6383,0.0016,-0.0042,0.0006,-0.0035,-0.0690
1740035343.6477,0.0016,-0.0045,0.0006,-0.0028,-0.0508
1740035343.6577,0.0020,0.1056,-0.0002,-0.1679,-7.4996
1740035343.6678,0.0026,0.0612,-0.0011,-0.1011,-4.9009
1740035343.6777,0.0032,0.0374,-0.0021,-0.0652,-3.7068
1740035343.6877,0.0034,0.0257,-0.0026,-0.0479,-3.1208
1740035343.6977,0.0035,0.0004,-0.0028,-0.0102,-1.5864
1740035343.7078,0.0035,-0.0047,-0.0028,-0.0031,-1.2972
1740035343.7177,0.0034,-0.0145,-0.0028,0.0112,-0.6755
1740035343.7277,0.0032,-0.0190,-0.0027,0.0176,-0.3646
1740035343.7377,0.0029,-0.0249,-0.0024,0.0258,0.0700
1740035343.7478,0.0028,-0.0235,-0.0022,0.0235,0.0214
1740035343.7579,0.0025,-0.0221,-0.0020,0.0210,-0.0254
1740035343.7677,0.0023,-0.0214,-0.0018,0.0196,-0.0366
1740035343.7778,0.0020,-0.0334,-0.0014,0.0373,0.8584
1740035343.7877,0.0017,-0.0277,-0.0011,0.0285,0.5431
1740035343.7977,0.0014,-0.0433,-0.0007,0.0516,1.6995
1740035343.8077,0.0010,-0.0291,-0.0003,0.0301,0.8914
1740035343.8177,0.0007,-0.0525,0.0001,0.0652,2.5543
1740035343.8278,0.0001,-0.0533,0.0008,0.0663,2.8129
1740035343.8377,-0.0003,-0.0292,0.0013,0.0301,1.3911
1740035343.8477,-0.0005,-0.0436,0.0015,0.0519,2.4206
1740035343.8577,-0.0009,-0.0230,0.0019,0.0211,1.1978
1740035343.8677,-0.0010,-0.0119,0.0020,0.0046,0.5214
1740035343.8778,-0.0013,-0.0261,0.0023,0.0262,1.5753
1740035343.8877,-0.0015,-0.0141,0.0024,0.0085,0.8597
1740035343.8977,-0.0016,-0.0070,0.0025,-0.0018,0.4219
1740035343.9077,-0.0017,-0.0032,0.0024,-0.0071,0.1799
1740035343.9177,-0.0018,-0.0119,0.0025,0.0063,0.7922
1740035343.9277,-0.0019,-0.0059,0.0025,-0.0025,0.4234
1740035343.9377,-0.0020,-0.0082,0.0025,0.0014,0.6102
1740035343.9481,-0.0020,-0.0034,0.0025,-0.0054,0.3107
1740035343.9577,-0.0021,-0.0042,0.0025,-0.0039,0.3749
1740035343.9677,-0.0021,-0.0046,0.0024,-0.0029,0.4075
1740035343.9777,-0.0021,-0.0014,0.0024,-0.0073,0.2008
1740035343.9878,-0.0021,-0.0003,0.0023,-0.0086,0.1290
1740035343.9977,-0.0021,0.0004,0.0023,-0.0095,0.0718
1740035344.0078,-0.0021,-0.0111,0.0022,0.0083,0.8197
1740035344.0177,-0.0022,-0.0064,0.0022,0.0014,0.5331
1740035344.0278,-0.0022,-0.0031,0.0022,-0.0033,0.3312
1740035344.0378,-0.0023,0.0004,0.0021,-0.0082,0.0979
1740035344.0477,-0.0022,0.0012,0.0020,-0.0091,0.0357
1740035344.0577,-0.0030,-0.1302,0.0030,0.1882,8.9677
1740035344.0677,-0.0040,-0.0747,0.0046,0.1050,5.8817
1740035344.0777,-0.0047,-0.0392,0.0056,0.0522,3.9322
1740035344.0878,-0.0049,-0.0134,0.0058,0.0142,2.3758
1740035344.0978,-0.0049,0.0108,0.0057,-0.0212,0.8318
1740035344.1078,-0.0048,0.0083,0.0054,-0.0166,0.9611
1740035344.1178,-0.0047,0.0132,0.0053,-0.0232,0.6377
1740035344.1286,-0.0045,0.0174,0.0051,-0.0288,0.3313
1740035344.1377,-0.0044,0.0193,0.0048,-0.0310,0.1644
1740035344.1478,-0.0042,0.0197,0.0045,-0.0307,0.0897
1740035344.1577,-0.0040,0.0205,0.0042,-0.0314,-0.0102
1740035344.1677,-0.0038,0.0261,0.0039,-0.0390,-0.4306
1740035344.1778,-0.0036,0.0214,0.0036,-0.0314,-0.1993
1740035344.1877,-0.0034,0.0196,0.0034,-0.0282,-0.1188
1740035344.1977,-0.0032,0.0177,0.0031,-0.0248,-0.0438
1740035344.2078,-0.0031,0.0270,0.0028,-0.0382,-0.7052
1740035344.2178,-0.0029,0.0215,0.0026,-0.0296,-0.4121
1740035344.2277,-0.0027,0.0164,0.0023,-0.0215,-0.1283
1740035344.2377,-0.0025,0.0143,0.0021,-0.0180,-0.0272
1740035344.2477,-0.0024,0.0213,0.0020,-0.0281,-0.5158
1740035344.2578,-0.0022,0.0163,0.0017,-0.0202,-0.2440
1740035344.2677,-0.0021,0.0117,0.0015,-0.0131,0.0175
1740035344.2777,-0.0020,0.0113,0.0014,-0.0122,0.0221
1740035344.2877,-0.0019,0.0110,0.0013,-0.0115,0.0241
1740035344.2977,-0.0018,0.0042,0.0013,-0.0012,0.4782
1740035344.3077,-0.0018,0.0077,0.0013,-0.0063,0.2525
1740035344.3178,-0.0017,0.0093,0.0012,-0.0084,0.1396
1740035344.3278,-0.0016,0.0098,0.0011,-0.0091,0.0999
1740035344.3377,-0.0015,0.0103,0.0010,-0.0096,0.0453
1740035344.3478,-0.0014,0.0102,0.0009,-0.0092,0.0355
1740035344.3578,-0.0013,0.0058,0.0009,-0.0026,0.3232
1740035344.3677,-0.0012,0.0081,0.0008,-0.0058,0.1744
1740035344.3777,-0.0012,0.0058,0.0008,-0.0022,0.3346
1740035344.3883,-0.0011,0.0074,0.0008,-0.0046,0.2269
1740035344.3977,-0.0010,0.0113,0.0007,-0.0102,-0.0410
1740035344.4077,-0.0009,0.0162,0.0006,-0.0175,-0.3899
1740035344.4177,-0.0008,0.0125,0.0005,-0.0117,-0.1830
1740035344.4307,-0.0007,0.0111,0.0004,-0.0096,-0.1112
1740035344.4377,-0.0005,0.0202,0.0002,-0.0231,-0.7709
1740035344.4477,-0.0003,0.0140,0.0000,-0.0138,-0.4152
1740035344.4593,-0.0002,0.0109,-0.0001,-0.0092,-0.2417
1740035344.4678,-0.0001,0.0087,-0.0002,-0.0058,-0.1151
1740035344.4777,0.0001,0.0178,-0.0004,-0.0194,-0.7817
1740035344.4878,0.0002,0.0116,-0.0005,-0.0102,-0.4231
1740035344.4977,0.0003,0.0079,-0.0006,-0.0047,-0.2037
1740035344.5077,0.0004,0.0241,-0.0006,-0.0290,-1.2824
1740035344.5178,0.0006,0.0131,-0.0008,-0.0126,-0.6346
1740035344.5277,0.0006,0.0098,-0.0009,-0.0077,-0.4397
1740035344.5378,0.0013,0.1531,-0.0019,-0.2226,-10.1472
1740035344.5477,0.0033,0.1560,-0.0047,-0.2268,-11.2775
1740035344.5577,0.0043,0.0617,-0.0062,-0.0856,-5.6502
1740035344.5677,0.0047,0.0154,-0.0067,-0.0168,-2.8400
1740035344.5777,0.0049,0.0069,-0.0069,-0.0051,-2.4396
1740035344.5882,0.0048,-0.0102,-0.0068,0.0197,-1.3601
1740035344.5978,0.0047,-0.0207,-0.0066,0.0345,-0.6500
1740035344.6082,0.0044,-0.0074,-0.0062,0.0133,-1.4669
1740035344.6177,0.0043,-0.0182,-0.0060,0.0286,-0.7531
1740035344.6280,0.0041,-0.0221,-0.0057,0.0336,-0.4686
1740035344.6377,0.0040,-0.0244,-0.0055,0.0365,-0.2737
1740035344.6477,0.0036,-0.0260,-0.0050,0.0377,-0.0889
1740035344.6578,0.0034,-0.0253,-0.0046,0.0359,-0.0639
1740035344.6678,0.0032,-0.0246,-0.0043,0.0342,-0.0511
1740035344.6777,0.0029,-0.0238,-0.0040,0.0322,-0.0446
1740035344.6878,0.0027,-0.0176,-0.0037,0.0222,-0.3965
1740035344.6978,0.0025,-0.0197,-0.0034,0.0249,-0.2169
1740035344.7077,0.0023,-0.0129,-0.0032,0.0140,-0.6268
1740035344.7178,0.0022,-0.0171,-0.0030,0.0198,-0.3318
1740035344.7278,0.0020,-0.0185,-0.0028,0.0215,-0.2141
1740035344.7379,0.0018,-0.0196,-0.0026,0.0227,-0.0999
1740035344.7478,0.0017,-0.0196,-0.0024,0.0224,-0.0587
1740035344.7577,0.0015,-0.0172,-0.0022,0.0183,-0.1798
1740035344.7678,0.0014,-0.0176,-0.0021,0.0186,-0.1365
1740035344.7778,0.0012,-0.0180,-0.0019,0.0188,-0.0761
1740035344.7878,0.0010,-0.0149,-0.0017,0.0139,-0.2358
1740035344.7980,0.0009,-0.0158,-0.0016,0.0151,-0.1549
1740035344.8079,0.0008,-0.0161,-0.0015,0.0154,-0.1185
1740035344.8179,0.0007,-0.0072,-0.0015,0.0018,-0.7156
1740035344.8284,0.0006,-0.0115,-0.0014,0.0079,-0.4410
1740035344.8377,0.0005,-0.0087,-0.0014,0.0036,-0.6338
1740035344.8478,0.0005,-0.0041,-0.0014,-0.0035,-0.9409
1740035344.8578,0.0004,-0.0112,-0.0014,0.0070,-0.4870
1740035344.8678,0.0003,-0.0148,-0.0013,0.0122,-0.2354
1740035344.8777,0.0002,-0.0118,-0.0012,0.0074,-0.4342
1740035344.8878,0.0000,-0.0143,-0.0011,0.0111,-0.2536
1740035344.8979,-0.0000,-0.0085,-0.0011,0.0021,-0.6498
1740035344.9078,-0.0001,-0.0120,-0.0011,0.0072,-0.4247
1740035344.9177,-0.0002,-0.0145,-0.0010,0.0108,-0.2482
1740035344.9277,-0.0004,-0.0136,-0.0009,0.0093,-0.2782
1740035344.9377,-0.0006,-0.0152,-0.0008,0.0116,-0.1543
1740035344.9477,-0.0007,-0.0143,-0.0006,0.0100,-0.1877
1740035344.9577,-0.0009,-0.0152,-0.0005,0.0113,-0.1001
1740035344.9677,-0.0010,-0.0225,-0.0004,0.0222,0.4023
1740035344.9777,-0.0012,-0.0185,-0.0002,0.0160,0.1878
1740035344.9877,-0.0014,-0.0244,-0.0001,0.0247,0.6185
1740035344.9978,-0.0016,-0.0185,0.0001,0.0160,0.2974
1740035345.0077,-0.0018,-0.0242,0.0003,0.0244,0.7129
1740035345.0177,-0.0020,-0.0176,0.0005,0.0146,0.3461
1740035345.0283,-0.0022,-0.0143,0.0006,0.0096,0.1634
1740035345.0377,-0.0024,-0.0224,0.0008,0.0218,0.7745
1740035345.0477,-0.0026,-0.0230,0.0010,0.0229,0.8795
1740035345.0577,-0.0028,-0.0153,0.0012,0.0114,0.4329
1740035345.0677,-0.0029,-0.0121,0.0013,0.0067,0.2553
1740035345.0780,-0.0031,-0.0123,0.0014,0.0071,0.3038
1740035345.0877,-0.0032,-0.0097,0.0014,0.0035,0.1629
1740035345.0977,-0.0033,-0.0093,0.0014,0.0031,0.1625
1740035345.1077,-0.0034,-0.0049,0.0015,-0.0033,-0.1113
1740035345.1177,-0.0034,-0.0057,0.0014,-0.0020,-0.0591
1740035345.1277,-0.0035,0.0013,0.0014,-0.0123,-0.5150
1740035345.1377,-0.0035,-0.0029,0.0013,-0.0058,-0.2604
1740035345.1477,-0.0035,-0.0051,0.0013,-0.0023,-0.1191
1740035345.1577,-0.0036,-0.0074,0.0013,0.0015,0.0482
1740035345.1677,-0.0037,-0.0070,0.0013,0.0010,0.0313
1740035345.1777,-0.0037,-0.0057,0.0013,-0.0007,-0.0426
1740035345.1877,-0.0038,-0.0058,0.0013,-0.0003,-0.0264
1740035345.1977,-0.0039,-0.0123,0.0014,0.0096,0.4388
1740035345.2078,-0.0040,-0.0257,0.0015,0.0298,1.3554
1740035345.2178,-0.0042,-0.0141,0.0017,0.0126,0.6790
1740035345.2278,-0.0044,-0.0263,0.0018,0.0311,1.5225
1740035345.2377,-0.0045,-0.0147,0.0020,0.0139,0.8413
1740035345.2477,-0.0046,-0.0071,0.0021,0.0028,0.3877
1740035345.2577,-0.0049,-0.0298,0.0025,0.0371,2.0213
1740035345.2678,-0.0052,-0.0495,0.0027,0.0669,3.4131
1740035345.2778,-0.0055,-0.0209,0.0032,0.0243,1.7153
1740035345.2877,-0.0056,-0.0068,0.0033,0.0036,0.8677
1740035345.2978,-0.0059,-0.0252,0.0036,0.0315,2.2010
1740035345.3077,-0.0061,-0.0120,0.0038,0.0122,1.4386
1740035345.3177,-0.0061,0.0012,0.0038,-0.0071,0.6202
1740035345.3277,-0.0061,-0.0110,0.0038,0.0118,1.4272
1740035345.3377,-0.0061,0.0004,0.0038,-0.0048,0.7291
1740035345.3477,-0.0061,0.0059,0.0037,-0.0124,0.3806
1740035345.3577,-0.0060,0.0084,0.0035,-0.0156,0.2067
1740035345.3678,-0.0059,0.0123,0.0034,-0.0208,-0.0628
1740035345.3777,-0.0058,0.0111,0.0032,-0.0185,-0.0147
1740035345.3877,-0.0057,0.0158,0.0030,-0.0250,-0.3477
1740035345.3977,-0.0056,0.0122,0.0028,-0.0192,-0.1571
1740035345.4078,-0.0055,0.0106,0.0027,-0.0165,-0.0704
1740035345.4177,-0.0053,0.0159,0.0024,-0.0239,-0.4835
1740035345.4277,-0.0052,0.0118,0.0022,-0.0174,-0.2516
1740035345.4377,-0.0050,0.0104,0.0020,-0.0149,-0.1941
1740035345.4477,-0.0050,0.0083,0.0019,-0.0115,-0.0779
1740035345.4577,-0.0048,0.0104,0.0017,-0.0143,-0.2426
1740035345.4677,-0.0048,0.0081,0.0016,-0.0105,-0.1143
1740035345.4777,-0.0047,0.0011,0.0016,0.0003,0.3628
1740035345.4877,-0.0047,0.0034,0.0016,-0.0030,0.2235
1740035345.4977,-0.0048,-0.0108,0.0018,0.0186,1.2364
1740035345.5077,-0.0049,-0.0016,0.0019,0.0049,0.6908
1740035345.5177,-0.0051,-0.0142,0.0022,0.0241,1.6298
1740035345.5277,-0.0052,-0.0215,0.0023,0.0353,2.1809
1740035345.5380,-0.0053,-0.0072,0.0025,0.0140,1.3279
1740035345.5477,-0.0053,0.0023,0.0026,0.0001,0.7506
1740035345.5577,-0.0052,0.0080,0.0025,-0.0080,0.3971
1740035345.5678,-0.0052,-0.0133,0.0025,0.0243,1.7958
1740035345.5777,-0.0052,-0.0003,0.0026,0.0051,1.0094
1740035345.5877,-0.0052,0.0081,0.0026,-0.0071,0.4853
1740035345.5981,-0.0052,0.0026,0.0026,0.0016,0.8888
1740035345.6077,-0.0051,0.0090,0.0026,-0.0077,0.4893
1740035345.6177,-0.0050,0.0123,0.0025,-0.0123,0.2688
1740035345.6277,-0.0048,0.0212,0.0023,-0.0252,-0.3280
1740035345.6377,-0.0047,0.0183,0.0022,-0.0206,-0.1782
1740035345.6477,-0.0045,0.0159,0.0020,-0.0167,-0.0528
1740035345.6577,-0.0042,0.0290,0.0016,-0.0359,-1.0045
1740035345.6677,-0.0040,0.0206,0.0013,-0.0230,-0.5316
1740035345.6777,-0.0038,0.0319,0.0010,-0.0397,-1.3526
1740035345.6878,-0.0035,0.0223,0.0008,-0.0251,-0.7969
1740035345.6977,-0.0032,0.0301,0.0003,-0.0367,-1.4425
1740035345.7077,-0.0029,0.0327,0.0000,-0.0405,-1.6998
1740035345.7177,-0.0027,0.0181,-0.0002,-0.0184,-0.8327
1740035345.7277,-0.0025,0.0155,-0.0004,-0.0145,-0.7035
1740035345.7377,-0.0024,0.0094,-0.0005,-0.0054,-0.3357
1740035345.7477,-0.0023,0.0052,-0.0005,0.0009,-0.0694
1740035345.7577,-0.0023,0.0044,-0.0005,0.0019,-0.0193
1740035345.7713,-0.0023,-0.0064,-0.0004,0.0180,0.6972
1740035345.7777,-0.0026,-0.0334,0.0001,0.0585,2.6355
1740035345.7877,-0.0027,-0.0217,0.0004,0.0407,1.9638
1740035345.7977,-0.0030,-0.0270,0.0008,0.0487,2.4695
1740035345.8077,-0.0032,-0.0292,0.0012,0.0521,2.7422
1740035345.8177,-0.0033,-0.0066,0.0015,0.0182,1.3922
1740035345.8277,-0.0033,0.0045,0.0016,0.0018,0.7178
1740035345.8377,-0.0034,-0.0039,0.0018,0.0145,1.3432
1740035345.8477,-0.0034,0.0067,0.0018,-0.0011,0.6945
1740035345.8577,-0.0033,0.0064,0.0019,-0.0005,0.7455
1740035345.8677,-0.0032,0.0119,0.0018,-0.0083,0.3988
1740035345.8777,-0.0030,0.0240,0.0016,-0.0262,-0.4452
1740035345.8877,-0.0028,0.0201,0.0014,-0.0201,-0.2459
1740035345.8978,-0.0017,0.2026,-0.0002,-0.2935,-12.6742
1740035345.9077,-0.0002,0.1335,-0.0023,-0.1893,-8.8420
1740035345.9177,0.0007,0.0590,-0.0036,-0.0776,-4.4142
1740035345.9277,0.0011,0.0564,-0.0041,-0.0740,-4.4465
1740035345.9378,0.0015,0.0196,-0.0046,-0.0192,-2.2217
1740035345.9478,0.0016,0.0052,-0.0046,0.0019,-1.3357
1740035345.9577,0.0016,-0.0042,-0.0045,0.0153,-0.7360
1740035345.9677,0.0016,0.0203,-0.0044,-0.0220,-2.3348
1740035345.9777,0.0017,0.0051,-0.0045,0.0002,-1.4054
1740035345.9878,0.0017,-0.0000,-0.0045,0.0077,-1.0788
1740035345.9978,0.0016,-0.0103,-0.0043,0.0223,-0.3974
1740035346.0078,0.0015,-0.0130,-0.0041,0.0258,-0.1849
1740035346.0177,0.0016,0.0154,-0.0042,-0.0174,-2.1165
1740035346.0277,0.0017,0.0018,-0.0042,0.0026,-1.2766
1740035346.0403,0.0016,-0.0080,-0.0041,0.0167,-0.6439
1740035346.0477,0.0015,-0.0247,-0.0039,0.0409,0.4879
1740035346.0578,0.0012,-0.0192,-0.0035,0.0319,0.2131
1740035346.0677,0.0011,-0.0223,-0.0032,0.0360,0.4809
1740035346.0778,0.0009,-0.0184,-0.0029,0.0297,0.2852
1740035346.0877,0.0007,-0.0152,-0.0026,0.0245,0.1380
1740035346.0978,0.0005,-0.0238,-0.0023,0.0370,0.7755
1740035346.1077,0.0003,-0.0158,-0.0020,0.0245,0.3296
1740035346.1177,0.0002,-0.0124,-0.0018,0.0192,0.1615
1740035346.1277,0.0001,-0.0024,-0.0016,0.0038,-0.4550
1740035346.1378,0.0000,-0.0058,-0.0016,0.0086,-0.2307
1740035346.1477,-0.0000,-0.0078,-0.0015,0.0114,-0.0818
1740035346.1577,0.0001,0.0101,-0.0016,-0.0157,-1.3295
1740035346.1677,0.0001,-0.0006,-0.0017,0.0002,-0.6692
1740035346.1778,0.0002,0.0224,-0.0018,-0.0344,-2.2252
1740035346.1877,0.0004,0.0360,-0.0021,-0.0550,-3.2281
1740035346.1978,0.0006,0.0094,-0.0025,-0.0154,-1.6217
1740035346.2077,0.0006,0.0301,-0.0025,-0.0469,-3.0337
1740035346.2180,0.0008,0.0078,-0.0028,-0.0136,-1.6794
1740035346.2277,0.0008,-0.0066,-0.0028,0.0075,-0.7768
1740035346.2377,0.0009,0.0105,-0.0031,-0.0185,-2.0088
1740035346.2477,0.0010,-0.0055,-0.0031,0.0051,-1.0167
1740035346.2577,0.0011,0.0075,-0.0033,-0.0149,-1.9801
1740035346.2677,0.0011,0.0020,-0.0034,-0.0071,-1.6690
1740035346.2778,0.0011,-0.0071,-0.0034,0.0062,-1.0980
1740035346.2877,0.0009,-0.0238,-0.0032,0.0307,0.0002
1740035346.2977,0.0007,-0.0226,-0.0029,0.0284,-0.0146
1740035346.3077,0.0005,-0.0217,-0.0026,0.0265,-0.0216
1740035346.3178,0.0003,-0.0208,-0.0024,0.0247,-0.0259
1740035346.3277,0.0001,-0.0200,-0.0022,0.0231,-0.0267
1740035346.3377,-0.0001,-0.0193,-0.0019,0.0217,-0.0265
1740035346.3477,-0.0003,-0.0415,-0.0017,0.0547,1.4809
1740035346.3577,-0.0007,-0.0281,-0.0013,0.0343,0.7288
1740035346.3677,-0.0009,-0.0388,-0.0009,0.0501,1.5127
1740035346.3778,-0.0012,-0.0294,-0.0007,0.0357,0.9790
1740035346.3877,-0.0014,-0.0201,-0.0004,0.0216,0.4517
1740035346.3977,-0.0016,-0.0157,-0.0002,0.0149,0.2175
1740035346.4083,-0.0018,-0.0130,-0.0001,0.0107,0.0762
1740035346.4177,-0.0019,-0.0117,0.0000,0.0089,0.0229
1740035346.4277,-0.0020,-0.0111,0.0001,0.0079,0.0045
1740035346.4377,-0.0020,-0.0016,0.0001,-0.0063,-0.6381
1740035346.4477,-0.0020,-0.0061,0.0000,0.0004,-0.3607
1740035346.4577,-0.0020,0.0062,-0.0002,-0.0180,-1.2348
1740035346.4677,-0.0019,0.0143,-0.0003,-0.0302,-1.8146
1740035346.4778,-0.0019,0.0039,-0.0005,-0.0145,-1.1881
1740035346.4878,-0.0019,-0.0088,-0.0005,0.0045,-0.3810
1740035346.4977,-0.0020,-0.0133,-0.0004,0.0111,-0.0680
1740035346.5077,-0.0022,-0.0132,-0.0003,0.0110,-0.0416
1740035346.5192,-0.0023,-0.0131,-0.0002,0.0107,-0.0335
1740035346.5277,-0.0024,-0.0128,-0.0001,0.0102,-0.0190
1740035346.5377,-0.0025,-0.0125,-0.0000,0.0097,-0.0151
1740035346.5477,-0.0026,-0.0122,0.0001,0.0092,-0.0139
1740035346.5577,-0.0028,-0.0118,0.0002,0.0086,-0.0122
1740035346.5683,-0.0029,-0.0114,0.0002,0.0080,-0.0112
1740035346.5777,-0.0032,-0.0311,0.0006,0.0375,1.3997
1740035346.5877,-0.0035,-0.0547,0.0010,0.0730,3.0537
1740035346.5977,-0.0039,-0.0287,0.0015,0.0339,1.5260
1740035346.6077,-0.0041,-0.0462,0.0017,0.0604,2.7765
1740035346.6177,-0.0044,-0.0250,0.0021,0.0288,1.5311
1740035346.6277,-0.0046,-0.0112,0.0023,0.0083,0.7016
1740035346.6377,-0.0049,-0.0315,0.0027,0.0390,2.1893
1740035346.6477,-0.0052,-0.0144,0.0030,0.0136,1.1817
1740035346.6577,-0.0053,-0.0047,0.0031,-0.0004,0.5985
1740035346.6677,-0.0053,-0.0081,0.0030,0.0052,0.8409
1740035346.6777,-0.0053,-0.0014,0.0030,-0.0045,0.4294
1740035346.6877,-0.0053,-0.0020,0.0030,-0.0032,0.4750
1740035346.6977,-0.0053,0.0016,0.0029,-0.0082,0.2475
1740035346.7077,-0.0053,0.0084,0.0028,-0.0179,-0.2009
1740035346.7177,-0.0052,0.0063,0.0026,-0.0143,-0.0900
1740035346.7277,-0.0052,0.0146,0.0025,-0.0263,-0.6515
1740035346.7378,-0.0051,0.0088,0.0023,-0.0171,-0.3152
1740035346.7503,-0.0050,0.0061,0.0021,-0.0128,-0.1642
1740035346.7577,-0.0047,0.0320,0.0018,-0.0514,-1.9698
1740035346.7677,-0.0045,0.0196,0.0014,-0.0324,-1.2649
1740035346.7777,-0.0044,0.0089,0.0011,-0.0159,-0.6239
1740035346.7877,-0.0043,-0.0061,0.0010,0.0067,0.3303
1740035346.7978,-0.0044,-0.0033,0.0011,0.0027,0.1739
1740035346.8077,-0.0044,-0.0209,0.0011,0.0292,1.3465
1740035346.8180,-0.0046,-0.0096,0.0013,0.0123,0.6831
1740035346.8280,-0.0047,-0.0318,0.0014,0.0458,2.1867
1740035346.8377,-0.0049,-0.0153,0.0017,0.0211,1.2148
1740035346.8477,-0.0049,-0.0045,0.0019,0.0052,0.5674
1740035346.8577,-0.0053,-0.0299,0.0023,0.0435,2.4024
1740035346.8677,-0.0055,-0.0114,0.0026,0.0161,1.3159
1740035346.8777,-0.0059,-0.0336,0.0032,0.0497,2.9845
1740035346.8877,-0.0061,-0.0408,0.0036,0.0608,3.6054
1740035346.8977,-0.0064,-0.0112,0.0039,0.0167,1.8242
1740035346.9077,-0.0064,-0.0192,0.0040,0.0293,2.4163
1740035346.9178,-0.0065,-0.0035,0.0041,0.0063,1.4718
1740035346.9277,-0.0065,-0.0054,0.0041,0.0097,1.6329
1740035346.9377,-0.0065,0.0061,0.0041,-0.0070,0.9219
1740035346.9477,-0.0064,0.0134,0.0040,-0.0173,0.4481
1740035346.9580,-0.0062,0.0159,0.0038,-0.0205,0.2656
1740035346.9677,-0.0061,0.0195,0.0036,-0.0253,0.0019
1740035346.9777,-0.0059,0.0185,0.0034,-0.0232,0.0266
1740035346.9882,-0.0057,0.0304,0.0031,-0.0406,-0.7942
1740035346.9977,-0.0053,0.0356,0.0026,-0.0478,-1.2742
1740035347.0077,-0.0050,0.0399,0.0022,-0.0538,-1.6558
1740035347.0177,-0.0046,0.0252,0.0018,-0.0313,-0.8052
1740035347.0278,-0.0045,0.0215,0.0016,-0.0255,-0.5946
1740035347.0379,-0.0044,0.0157,0.0014,-0.0165,-0.2641
1740035347.0477,-0.0042,0.0190,0.0013,-0.0212,-0.5089
1740035347.0577,-0.0040,0.0142,0.0011,-0.0138,-0.2334
1740035347.0677,-0.0039,0.0119,0.0010,-0.0103,-0.1098
1740035347.0777,-0.0038,0.0114,0.0009,-0.0093,-0.0966
1740035347.0877,-0.0037,0.0102,0.0008,-0.0073,-0.0272
1740035347.0980,-0.0037,0.0027,0.0008,0.0040,0.4821
1740035347.1077,-0.0036,-0.0051,0.0009,0.0159,1.0171
1740035347.1177,-0.0036,0.0022,0.0010,0.0050,0.5789
1740035347.1278,-0.0036,-0.0068,0.0010,0.0186,1.1885
1740035347.1380,-0.0036,-0.0019,0.0011,0.0114,0.9043
1740035347.1480,-0.0036,-0.0078,0.0011,0.0204,1.3297
1740035347.1577,-0.0036,0.0028,0.0013,0.0045,0.6869
1740035347.1678,-0.0036,-0.0043,0.0013,0.0155,1.1789
1740035347.1777,-0.0036,0.0050,0.0014,0.0016,0.6120
1740035347.1877,-0.0035,0.0088,0.0013,-0.0038,0.3785
1740035347.1977,-0.0034,0.0113,0.0013,-0.0074,0.2119
1740035347.2077,-0.0033,0.0234,0.0012,-0.0253,-0.5901
1740035347.2177,-0.0031,0.0177,0.0010,-0.0167,-0.2731
1740035347.2279,-0.0030,0.0157,0.0009,-0.0135,-0.1629
1740035347.2377,-0.0028,0.0138,0.0008,-0.0105,-0.0646
1740035347.2477,-0.0027,0.0127,0.0007,-0.0086,-0.0060
1740035347.2577,-0.0023,0.0381,0.0002,-0.0466,-1.7958
1740035347.2677,-0.0020,0.0252,-0.0001,-0.0272,-1.0724
1740035347.2777,-0.0018,0.0144,-0.0003,-0.0109,-0.4230
1740035347.2877,-0.0017,0.0302,-0.0004,-0.0347,-1.4926
1740035347.2977,-0.0014,0.0173,-0.0007,-0.0154,-0.7302
1740035347.3077,-0.0013,0.0267,-0.0008,-0.0296,-1.3880
1740035347.3177,-0.0011,0.0149,-0.0010,-0.0118,-0.6795
1740035347.3278,-0.0010,0.0107,-0.0011,-0.0057,-0.4331
1740035347.3377,-0.0008,0.0300,-0.0013,-0.0347,-1.7851
1740035347.3477,-0.0005,0.0176,-0.0016,-0.0162,-1.0598
1740035347.3577,-0.0004,0.0087,-0.0016,-0.0031,-0.5189
1740035347.3677,-0.0004,0.0020,-0.0016,0.0068,-0.0905
1740035347.3777,-0.0003,0.0014,-0.0016,0.0075,-0.0406
1740035347.3877,-0.0003,0.0011,-0.0015,0.0076,-0.0134
1740035347.3977,-0.0004,-0.0048,-0.0013,0.0162,0.4152
1740035347.4077,-0.0004,-0.0076,-0.0012,0.0202,0.6341
1740035347.4178,-0.0005,-0.0027,-0.0010,0.0127,0.3584
1740035347.4277,-0.0005,0.0005,-0.0010,0.0078,0.1746
1740035347.4377,-0.0005,0.0005,-0.0009,0.0075,0.1925
1740035347.4477,-0.0004,0.0122,-0.0008,-0.0101,-0.5599
1740035347.4577,-0.0004,0.0074,-0.0009,-0.0030,-0.2702
1740035347.4678,-0.0003,0.0057,-0.0009,-0.0006,-0.1696
1740035347.4778,-0.0001,0.0196,-0.0011,-0.0216,-1.1525
1740035347.4881,0.0000,0.0106,-0.0012,-0.0082,-0.6216
1740035347.4978,0.0001,0.0055,-0.0013,-0.0007,-0.3072
1740035347.5077,0.0001,0.0030,-0.0013,0.0029,-0.1460
1740035347.5177,0.0004,0.0248,-0.0016,-0.0300,-1.6891
1740035347.5277,0.0006,0.0119,-0.0018,-0.0108,-0.9232
1740035347.5378,0.0008,0.0399,-0.0021,-0.0529,-2.8519
1740035347.5487,0.0012,0.0165,-0.0025,-0.0181,-1.5095
1740035347.5578,0.0015,0.0353,-0.0030,-0.0465,-2.9186
1740035347.5679,0.0017,0.0183,-0.0033,-0.0213,-1.9034
1740035347.5777,0.0020,0.0288,-0.0037,-0.0374,-2.7569
1740035347.5877,0.0022,0.0063,-0.0039,-0.0040,-1.3836
1740035347.5989,0.0024,0.0116,-0.0041,-0.0126,-1.8378
1740035347.6079,0.0024,-0.0016,-0.0041,0.0066,-1.0242
1740035347.6178,0.0025,0.0001,-0.0041,0.0035,-1.1879
1740035347.6277,0.0024,-0.0081,-0.0040,0.0152,-0.6625
1740035347.6378,0.0023,-0.0110,-0.0039,0.0189,-0.4587
1740035347.6478,0.0022,-0.0136,-0.0037,0.0223,-0.2614
1740035347.6578,0.0020,-0.0184,-0.0034,0.0287,0.1084
1740035347.6677,0.0019,-0.0168,-0.0031,0.0258,0.0512
1740035347.6778,0.0016,-0.0207,-0.0028,0.0312,0.3917
1740035347.6878,0.0014,-0.0242,-0.0025,0.0359,0.6843
1740035347.6978,0.0012,-0.0177,-0.0022,0.0258,0.3339
1740035347.7077,0.0011,-0.0146,-0.0020,0.0208,0.1768
1740035347.7177,0.0009,-0.0117,-0.0018,0.0161,0.0286
1740035347.7277,0.0008,-0.0147,-0.0016,0.0202,0.2558
1740035347.7378,0.0007,-0.0128,-0.0015,0.0172,0.1616
1740035347.7477,0.0006,-0.0111,-0.0013,0.0143,0.0776
1740035347.7577,0.0005,-0.0096,-0.0012,0.0119,0.0143
1740035347.7677,0.0004,-0.0085,-0.0011,0.0100,-0.0364
1740035347.7777,0.0003,-0.0084,-0.0010,0.0097,-0.0248
1740035347.7877,0.0003,-0.0048,-0.0009,0.0042,-0.2385
1740035347.7977,0.0002,-0.0065,-0.0008,0.0065,-0.1256
1740035347.8077,0.0001,-0.0070,-0.0008,0.0072,-0.0805
1740035347.8177,0.0001,-0.0074,-0.0007,0.0076,-0.0416
1740035347.8277,0.0000,-0.0009,-0.0007,-0.0023,-0.4562
1740035347.8377,-0.0000,-0.0037,-0.0007,0.0018,-0.2792
1740035347.8477,-0.0001,-0.0060,-0.0006,0.0053,-0.1220
1740035347.8577,-0.0001,-0.0067,-0.0006,0.0062,-0.0670
1740035347.8677,-0.0002,-0.0069,-0.0005,0.0064,-0.0421
1740035347.8777,-0.0002,-0.0051,-0.0005,0.0036,-0.1578
1740035347.8877,-0.0003,-0.0060,-0.0004,0.0049,-0.0908
1740035347.8977,-0.0004,-0.0114,-0.0003,0.0129,0.3004
1740035347.9078,-0.0005,-0.0089,-0.0002,0.0091,0.1664
1740035347.9177,-0.0006,-0.0072,-0.0001,0.0065,0.0785
1740035347.9277,-0.0007,-0.0153,-0.0000,0.0186,0.6268
1740035347.9377,-0.0008,-0.0103,0.0001,0.0111,0.3416
1740035347.9477,-0.0009,-0.0073,0.0002,0.0066,0.1695
1740035347.9577,-0.0010,-0.0105,0.0003,0.0114,0.4190
1740035347.9677,-0.0011,-0.0070,0.0004,0.0062,0.2202
1740035347.9778,-0.0012,-0.0102,0.0005,0.0109,0.4728
1740035347.9877,-0.0012,-0.0069,0.0006,0.0060,0.2828
1740035347.9977,-0.0013,-0.0078,0.0007,0.0074,0.3757
1740035348.0077,-0.0014,-0.0049,0.0007,0.0032,0.2060
1740035348.0177,-0.0014,-0.0043,0.0008,0.0024,0.1867
1740035348.0278,-0.0015,-0.0115,0.0008,0.0133,0.6697
1740035348.0378,-0.0015,-0.0080,0.0008,0.0082,0.4700
1740035348.0477,-0.0016,-0.0102,0.0009,0.0116,0.6398
1740035348.0577,-0.0017,-0.0049,0.0010,0.0037,0.3207
1740035348.0677,-0.0017,-0.0081,0.0010,0.0087,0.5500
1740035348.0777,-0.0018,-0.0035,0.0010,0.0020,0.2766
1740035348.0877,-0.0018,-0.0119,0.0011,0.0147,0.8408
1740035348.0977,-0.0019,-0.0049,0.0012,0.0044,0.4227
1740035348.1077,-0.0019,-0.0139,0.0012,0.0180,1.0305
1740035348.1177,-0.0020,-0.0054,0.0013,0.0053,0.5185
1740035348.1277,-0.0021,-0.0246,0.0014,0.0344,1.8074
1740035348.1379,-0.0022,-0.0096,0.0016,0.0119,0.9084
1740035348.1478,-0.0023,-0.0200,0.0016,0.0278,1.6271
1740035348.1577,-0.0024,-0.0066,0.0018,0.0078,0.8196
1740035348.1679,-0.0025,-0.0007,0.0018,-0.0008,0.4573
1740035348.1778,-0.0029,-0.0493,0.0025,0.0723,3.8790
1740035348.1877,-0.0033,-0.0197,0.0030,0.0282,2.1352
1740035348.1977,-0.0036,-0.0222,0.0034,0.0322,2.4714
1740035348.2077,-0.0037,-0.0044,0.0036,0.0059,1.3919
1740035348.2177,-0.0038,-0.0109,0.0038,0.0162,1.9344
1740035348.2277,-0.0039,-0.0123,0.0039,0.0188,2.0861
1740035348.2378,-0.0039,-0.0006,0.0040,0.0016,1.3716
1740035348.2478,-0.0039,0.0095,0.0039,-0.0129,0.7330
1740035348.2577,-0.0044,-0.1177,0.0047,0.1783,9.3538
1740035348.2677,-0.0054,-0.0610,0.0062,0.0936,6.1808
1740035348.2778,-0.0059,-0.0272,0.0070,0.0436,4.2967
1740035348.2877,-0.0059,0.0085,0.0071,-0.0091,2.0785
1740035348.2977,-0.0059,0.0073,0.0072,-0.0061,2.2632
1740035348.3077,-0.0058,0.0087,0.0070,-0.0072,2.1913
1740035348.3177,-0.0056,0.0251,0.0068,-0.0307,1.1307
1740035348.3277,-0.0053,0.0211,0.0064,-0.0236,1.3554
1740035348.3379,-0.0051,0.0305,0.0061,-0.0367,0.7131
1740035348.3477,-0.0048,0.0244,0.0058,-0.0265,1.0569
1740035348.3577,-0.0045,0.0314,0.0054,-0.0360,0.5637
1740035348.3677,-0.0041,0.0342,0.0051,-0.0394,0.3168
1740035348.3777,-0.0038,0.0349,0.0047,-0.0397,0.2055
1740035348.3880,-0.0035,0.0349,0.0043,-0.0390,0.1438
1740035348.3977,-0.0031,0.0406,0.0039,-0.0467,-0.3294
1740035348.4077,-0.0027,0.0398,0.0034,-0.0449,-0.3745
1740035348.4178,-0.0024,0.0355,0.0031,-0.0379,-0.1778
1740035348.4277,-0.0020,0.0396,0.0027,-0.0436,-0.5253
1740035348.4378,-0.0018,0.0355,0.0024,-0.0370,-0.3213
1740035348.4477,-0.0014,0.0382,0.0021,-0.0406,-0.5830
1740035348.4577,-0.0011,0.0320,0.0017,-0.0309,-0.2631
1740035348.4677,-0.0008,0.0394,0.0014,-0.0417,-0.8193
1740035348.4777,-0.0004,0.0314,0.0011,-0.0293,-0.3831
1740035348.4877,-0.0001,0.0343,0.0008,-0.0336,-0.6469
1740035348.4977,0.0002,0.0279,0.0005,-0.0237,-0.2988
1740035348.5077,0.0004,0.0247,0.0003,-0.0189,-0.1432
1740035348.5177,0.0008,0.0310,0.0000,-0.0282,-0.6416
1740035348.5277,0.0010,0.0251,-0.0002,-0.0193,-0.3260
1740035348.5378,0.0013,0.0289,-0.0005,-0.0248,-0.6518
1740035348.5477,0.0016,0.0229,-0.0007,-0.0159,-0.3240
1740035348.5577,0.0018,0.0168,-0.0008,-0.0069,0.0426
1740035348.5677,0.0019,0.0163,-0.0008,-0.0062,0.0592
1740035348.5777,0.0021,0.0125,-0.0008,-0.0006,0.3029
1740035348.5877,0.0022,0.0036,-0.0008,0.0127,0.8848
1740035348.5977,0.0023,0.0104,-0.0008,0.0023,0.4594
1740035348.6077,0.0024,0.0014,-0.0008,0.0156,1.0490
1740035348.6177,0.0024,0.0096,-0.0007,0.0031,0.5409
1740035348.6277,0.0025,0.0020,-0.0007,0.0146,1.0483
1740035348.6377,0.0026,0.0102,-0.0006,0.0022,0.5401
1740035348.6479,0.0027,0.0125,-0.0006,-0.0014,0.3885
1740035348.6578,0.0027,0.0070,-0.0005,0.0068,0.7803
1740035348.6678,0.0028,0.0111,-0.0005,0.0005,0.5201
1740035348.6778,0.0029,0.0137,-0.0005,-0.0034,0.3494
1740035348.6880,0.0031,0.0227,-0.0006,-0.0170,-0.2619
1740035348.6977,0.0033,0.0200,-0.0007,-0.0131,-0.1319
1740035348.7077,0.0035,0.0183,-0.0008,-0.0106,-0.0539
1740035348.7177,0.0037,0.0170,-0.0009,-0.0088,-0.0064
1740035348.7277,0.0039,0.0329,-0.0010,-0.0327,-1.0818
1740035348.7377,0.0041,0.0232,-0.0013,-0.0182,-0.5305
1740035348.7477,0.0043,0.0318,-0.0014,-0.0312,-1.1502
1740035348.7577,0.0046,0.0216,-0.0017,-0.0161,-0.5669
1740035348.7677,0.0048,0.0164,-0.0018,-0.0085,-0.2762
1740035348.7777,0.0051,0.0308,-0.0021,-0.0303,-1.3358
1740035348.7877,0.0054,0.0200,-0.0023,-0.0144,-0.7208
1740035348.7977,0.0057,0.0292,-0.0027,-0.0285,-1.4456
1740035348.8077,0.0059,0.0174,-0.0028,-0.0111,-0.7607
1740035348.8177,0.0064,0.0569,-0.0034,-0.0706,-3.5333
1740035348.8277,0.0068,0.0364,-0.0039,-0.0403,-2.4014
1740035348.8377,0.0071,0.0164,-0.0041,-0.0107,-1.2060
1740035348.8478,0.0072,0.0075,-0.0042,0.0021,-0.6700
1740035348.8577,0.0073,0.0086,-0.0042,-0.0002,-0.7931
1740035348.8677,0.0073,0.0024,-0.0042,0.0085,-0.4116
1740035348.8777,0.0074,0.0051,-0.0042,0.0038,-0.6223
1740035348.8877,0.0074,0.0145,-0.0041,-0.0109,-1.2559
1740035348.8977,0.0075,0.0043,-0.0041,0.0038,-0.6391
1740035348.9077,0.0076,0.0163,-0.0041,-0.0149,-1.4464
1740035348.9177,0.0077,0.0277,-0.0043,-0.0322,-2.2664
1740035348.9277,0.0079,0.0288,-0.0045,-0.0344,-2.4459
1740035348.9377,0.0081,0.0088,-0.0046,-0.0050,-1.2390
1740035348.9477,0.0082,0.0257,-0.0047,-0.0309,-2.3909
1740035348.9578,0.0083,0.0062,-0.0048,-0.0024,-1.2140
1740035348.9677,0.0083,0.0236,-0.0048,-0.0292,-2.3950
1740035348.9777,0.0087,0.0310,-0.0053,-0.0408,-3.1034
1740035348.9877,0.0089,0.0361,-0.0056,-0.0493,-3.5777
1740035348.9977,0.0091,0.0070,-0.0058,-0.0064,-1.8149
1740035349.0077,0.0091,-0.0071,-0.0058,0.0140,-0.9347
1740035349.0178,0.0093,0.0088,-0.0060,-0.0107,-2.0871
1740035349.0277,0.0093,-0.0067,-0.0059,0.0116,-1.1358
1740035349.0377,0.0093,-0.0025,-0.0060,0.0044,-1.4752
1740035349.0478,0.0092,-0.0122,-0.0058,0.0183,-0.8594
1740035349.0577,0.0091,-0.0185,-0.0056,0.0268,-0.4362
1740035349.0677,0.0089,-0.0237,-0.0053,0.0337,-0.0640
1740035349.0778,0.0086,-0.0229,-0.0050,0.0317,-0.0646
1740035349.0878,0.0085,-0.0226,-0.0049,0.0308,-0.0647
1740035349.0978,0.0081,-0.0325,-0.0044,0.0448,0.6937
1740035349.1077,0.0078,-0.0453,-0.0039,0.0633,1.6184
1740035349.1177,0.0075,-0.0320,-0.0035,0.0427,0.8637
1740035349.1277,0.0072,-0.0232,-0.0031,0.0289,0.3609
1740035349.1377,0.0068,-0.0387,-0.0026,0.0515,1.5165
1740035349.1477,0.0065,-0.0260,-0.0022,0.0320,0.7925
1740035349.1577,0.0061,-0.0354,-0.0017,0.0456,1.5476
1740035349.1677,0.0058,-0.0223,-0.0013,0.0257,0.7887
1740035349.1777,0.0055,-0.0318,-0.0009,0.0397,1.5396
1740035349.1877,0.0052,-0.0235,-0.0006,0.0270,1.0777
1740035349.1977,0.0050,-0.0141,-0.0004,0.0127,0.5157
1740035349.2077,0.0049,-0.0063,-0.0003,0.0009,0.0256
1740035349.2177,0.0049,-0.0058,-0.0003,0.0002,-0.0098
1740035349.2277,0.0048,0.0053,-0.0003,-0.0164,-0.7439
1740035349.2377,0.0048,-0.0008,-0.0004,-0.0074,-0.3947
1740035349.2478,0.0048,-0.0032,-0.0005,-0.0038,-0.2556
1740035349.2578,0.0048,-0.0054,-0.0005,-0.0006,-0.1283
1740035349.2677,0.0048,0.0187,-0.0005,-0.0367,-1.7208
1740035349.2777,0.0049,0.0045,-0.0008,-0.0154,-0.8841
1740035349.2877,0.0049,0.0196,-0.0009,-0.0382,-1.9265
1740035349.2977,0.0050,0.0037,-0.0011,-0.0145,-0.9881
1740035349.3077,0.0050,-0.0033,-0.0012,-0.0041,-0.5669
1740035349.3183,0.0050,0.0084,-0.0013,-0.0217,-1.3690
1740035349.3277,0.0051,-0.0032,-0.0015,-0.0046,-0.7186
1740035349.3377,0.0050,-0.0086,-0.0015,0.0033,-0.3861
1740035349.3477,0.0049,-0.0190,-0.0015,0.0187,0.2976
1740035349.3577,0.0047,-0.0159,-0.0013,0.0137,0.1223
1740035349.3677,0.0046,-0.0260,-0.0012,0.0288,0.8149
1740035349.3777,0.0044,-0.0185,-0.0009,0.0173,0.3819
1740035349.3877,0.0042,-0.0310,-0.0008,0.0358,1.2335
1740035349.3977,0.0039,-0.0200,-0.0005,0.0192,0.5925
1740035349.4077,0.0037,-0.0373,-0.0003,0.0450,1.7706
1740035349.4177,0.0035,-0.0250,-0.0001,0.0264,1.0466
1740035349.4277,0.0033,-0.0167,0.0001,0.0139,0.5567
1740035349.4378,0.0032,-0.0109,0.0002,0.0052,0.2041
1740035349.4492,0.0031,-0.0085,0.0002,0.0017,0.0555
1740035349.4578,0.0029,-0.0228,0.0004,0.0230,1.0547
1740035349.4678,0.0027,-0.0153,0.0006,0.0118,0.6171
1740035349.4781,0.0026,-0.0090,0.0007,0.0025,0.2324
1740035349.4877,0.0025,-0.0071,0.0007,-0.0003,0.1112
1740035349.4977,0.0024,-0.0058,0.0007,-0.0021,0.0258
1740035349.5078,0.0024,-0.0054,0.0006,-0.0027,-0.0099
1740035349.5177,0.0023,-0.0065,0.0006,-0.0009,0.0644
1740035349.5277,0.0022,-0.0059,0.0006,-0.0018,0.0185
1740035349.5377,0.0022,-0.0031,0.0006,-0.0057,-0.1761
1740035349.5477,0.0022,-0.0043,0.0005,-0.0039,-0.1160
1740035349.5577,0.0021,-0.0051,0.0005,-0.0027,-0.0753
1740035349.5677,0.0021,-0.0175,0.0005,0.0160,0.7357
1740035349.5777,0.0019,-0.0111,0.0006,0.0064,0.3512
1740035349.5877,0.0018,-0.0235,0.0006,0.0253,1.1891
1740035349.5977,0.0016,-0.0133,0.0008,0.0100,0.5792
1740035349.6078,0.0015,-0.0356,0.0009,0.0435,2.0694
1740035349.6178,0.0013,-0.0232,0.0011,0.0249,1.3390
1740035349.6277,0.0011,-0.0102,0.0013,0.0055,0.5385
1740035349.6377,0.0011,-0.0050,0.0013,-0.0021,0.2134
1740035349.6478,0.0010,-0.0030,0.0012,-0.0049,0.0769
1740035349.6577,0.0008,-0.0365,0.0016,0.0454,2.3786
1740035349.6677,0.0005,-0.0500,0.0019,0.0658,3.3840
1740035349.6777,0.0002,-0.0216,0.0023,0.0234,1.6841
1740035349.6884,0.0000,-0.0118,0.0024,0.0089,1.0927
1740035349.6977,-0.0003,-0.0281,0.0028,0.0336,2.2988
1740035349.7077,-0.0004,-0.0100,0.0030,0.0069,1.2105
1740035349.7177,-0.0006,-0.0129,0.0032,0.0116,1.4855
1740035349.7277,-0.0007,-0.0009,0.0032,-0.0059,0.7408
1740035349.7378,-0.0007,0.0052,0.0031,-0.0146,0.3341
1740035349.7477,-0.0006,0.0077,0.0029,-0.0179,0.1438
1740035349.7582,-0.0005,0.0191,0.0028,-0.0347,-0.6330
1740035349.7677,-0.0003,0.0144,0.0024,-0.0272,-0.4121
1740035349.7777,-0.0002,0.0105,0.0022,-0.0208,-0.2080
1740035349.7879,-0.0001,0.0086,0.0020,-0.0177,-0.1157
1740035349.7977,0.0002,0.0401,0.0015,-0.0646,-2.3327
1740035349.8077,0.0005,0.0240,0.0011,-0.0402,-1.4059
1740035349.8177,0.0008,0.0354,0.0005,-0.0571,-2.3331
1740035349.8277,0.0010,0.0254,0.0003,-0.0420,-1.7577
1740035349.8377,0.0014,0.0259,-0.0004,-0.0424,-2.0017
1740035349.8477,0.0015,0.0092,-0.0007,-0.0174,-1.0101
1740035349.8578,0.0016,0.0125,-0.0008,-0.0224,-1.2719
1740035349.8677,0.0017,-0.0035,-0.0009,0.0015,-0.2899
1740035349.8777,0.0016,-0.0057,-0.0009,0.0048,-0.1417
1740035349.8877,0.0016,-0.0066,-0.0008,0.0059,-0.0813
1740035349.8977,0.0015,-0.0070,-0.0008,0.0063,-0.0445
1740035349.9077,0.0014,-0.0070,-0.0007,0.0062,-0.0325
1740035349.9177,0.0011,-0.0314,-0.0002,0.0426,1.7053
1740035349.9277,0.0008,-0.0167,0.0001,0.0205,0.8447
1740035349.9377,0.0004,-0.0379,0.0007,0.0522,2.4405
1740035349.9477,0.0001,-0.0174,0.0011,0.0213,1.2156
1740035349.9578,-0.0003,-0.0342,0.0017,0.0466,2.5232
1740035349.9677,-0.0006,-0.0310,0.0020,0.0421,2.4386
1740035349.9777,-0.0008,-0.0108,0.0022,0.0119,1.2195
1740035349.9877,-0.0008,-0.0128,0.0023,0.0153,1.3911
1740035349.9977,-0.0009,-0.0015,0.0024,-0.0013,0.6973
1740035350.0077,-0.0009,0.0041,0.0023,-0.0094,0.3356
1740035350.0177,-0.0008,0.0064,0.0022,-0.0125,0.1701
1740035350.0277,-0.0008,0.0071,0.0021,-0.0134,0.1120
1740035350.0377,-0.0007,0.0077,0.0020,-0.0138,0.0497
1740035350.0478,-0.0006,0.0076,0.0018,-0.0135,0.0295
1740035350.0578,-0.0004,0.0271,0.0014,-0.0424,-1.3690
1740035350.0677,-0.0001,0.0352,0.0011,-0.0542,-1.9967
1740035350.0777,0.0001,0.0181,0.0007,-0.0283,-0.9986
1740035350.0878,0.0002,0.0112,0.0005,-0.0178,-0.6011
1740035350.0978,0.0009,0.1418,-0.0006,-0.2136,-9.4763
1740035350.1077,0.0022,0.1063,-0.0024,-0.1600,-7.7767
1740035350.1177,0.0028,0.0477,-0.0034,-0.0720,-4.2945
1740035350.1277,0.0031,0.0165,-0.0038,-0.0256,-2.4300
1740035350.1377,0.0032,-0.0030,-0.0039,0.0031,-1.2315
1740035350.1477,0.0031,-0.0094,-0.0038,0.0121,-0.8202
1740035350.1577,0.0030,-0.0153,-0.0037,0.0203,-0.4274
1740035350.1677,0.0028,-0.0178,-0.0035,0.0234,-0.2310
1740035350.1777,0.0026,-0.0236,-0.0031,0.0316,0.2163
1740035350.1877,0.0023,-0.0279,-0.0028,0.0374,0.5637
1740035350.1978,0.0021,-0.0222,-0.0025,0.0284,0.2659
1740035350.2077,0.0018,-0.0174,-0.0022,0.0208,0.0099
1740035350.2177,0.0017,-0.0165,-0.0020,0.0191,-0.0103
1740035350.2277,0.0015,-0.0050,-0.0019,0.0015,-0.7296
1740035350.2377,0.0015,-0.0104,-0.0018,0.0094,-0.3799
1740035350.2477,0.0014,0.0102,-0.0017,-0.0220,-1.7281
1740035350.2578,0.0014,0.0032,-0.0018,-0.0116,-1.3072
1740035350.2677,0.0013,-0.0110,-0.0018,0.0094,-0.4030
1740035350.2777,0.0015,0.0140,-0.0021,-0.0282,-2.1568
1740035350.2877,0.0015,-0.0020,-0.0023,-0.0045,-1.1907
1740035350.2980,0.0018,0.0245,-0.0028,-0.0445,-3.1199
1740035350.3088,0.0019,0.0067,-0.0030,-0.0181,-2.0475
1740035350.3178,0.0026,0.0777,-0.0040,-0.1249,-7.0634
1740035350.3277,0.0029,0.0367,-0.0047,-0.0636,-4.6216
1740035350.3377,0.0040,0.0882,-0.0063,-0.1412,-8.5715
1740035350.3477,0.0045,0.0180,-0.0071,-0.0364,-4.3216
1740035350.3577,0.0049,0.0176,-0.0078,-0.0369,-4.6163
1740035350.3677,0.0048,-0.0188,-0.0079,0.0166,-2.3495
1740035350.3777,0.0047,-0.0164,-0.0079,0.0117,-2.6074
1740035350.3877,0.0045,-0.0274,-0.0076,0.0270,-1.8935
1740035350.3978,0.0043,-0.0367,-0.0074,0.0402,-1.2644
1740035350.4078,0.0038,-0.0452,-0.0069,0.0518,-0.6416
1740035350.4177,0.0033,-0.0543,-0.0063,0.0642,0.0764
1740035350.4279,0.0027,-0.0514,-0.0056,0.0587,0.0274
1740035350.4377,0.0022,-0.0488,-0.0050,0.0538,-0.0269
1740035350.4477,0.0017,-0.0467,-0.0045,0.0498,-0.0560
1740035350.4577,0.0010,-0.0659,-0.0036,0.0777,1.4234
1740035350.4677,0.0004,-0.0790,-0.0029,0.0967,2.4619
1740035350.4777,-0.0003,-0.0564,-0.0022,0.0622,1.1972
1740035350.4877,-0.0008,-0.0446,-0.0017,0.0441,0.5666
1740035350.4977,-0.0015,-0.0598,-0.0009,0.0664,1.7886
1740035350.5077,-0.0020,-0.0522,-0.0003,0.0547,1.4456
1740035350.5177,-0.0024,-0.0388,0.0001,0.0344,0.6968
1740035350.5278,-0.0028,-0.0298,0.0004,0.0209,0.1968
1740035350.5377,-0.0031,-0.0271,0.0006,0.0169,0.0748
1740035350.5477,-0.0033,-0.0159,0.0007,0.0001,-0.6188
1740035350.5577,-0.0035,-0.0201,0.0008,0.0066,-0.3314
1740035350.5677,-0.0037,-0.0018,0.0008,-0.0209,-1.5181
1740035350.5777,-0.0038,-0.0136,0.0007,-0.0030,-0.7801
1740035350.5877,-0.0039,0.0053,0.0007,-0.0313,-2.0281
1740035350.5977,-0.0039,-0.0108,0.0005,-0.0069,-1.0347
1740035350.6077,-0.0041,0.0080,0.0005,-0.0351,-2.2854
1740035350.6177,-0.0041,-0.0103,0.0003,-0.0076,-1.1633
1740035350.6277,-0.0042,0.0052,0.0002,-0.0308,-2.1955
1740035350.6377,-0.0043,-0.0122,0.0001,-0.0045,-1.1182
1740035350.6477,-0.0044,-0.0035,0.0001,-0.0176,-1.6982
1740035350.6577,-0.0045,-0.0167,-0.0000,0.0022,-0.8691
1740035350.6679,-0.0047,-0.0210,0.0000,0.0087,-0.5801
1740035350.6777,-0.0049,-0.0254,0.0002,0.0152,-0.2624
1740035350.6879,-0.0052,-0.0267,0.0003,0.0172,-0.1322
1740035350.6979,-0.0053,-0.0262,0.0004,0.0164,-0.1322
1740035350.7078,-0.0055,-0.0262,0.0006,0.0165,-0.0928
1740035350.7177,-0.0058,-0.0259,0.0007,0.0161,-0.0623
1740035350.7277,-0.0061,-0.0349,0.0009,0.0297,0.5795
1740035350.7378,-0.0064,-0.0296,0.0011,0.0218,0.3068
1740035350.7477,-0.0066,-0.0259,0.0013,0.0163,0.1261
1740035350.7577,-0.0070,-0.0317,0.0016,0.0251,0.5959
1740035350.7677,-0.0072,-0.0365,0.0018,0.0326,0.9801
1740035350.7778,-0.0075,-0.0275,0.0020,0.0192,0.4814
1740035350.7878,-0.0077,-0.0232,0.0022,0.0130,0.2584
1740035350.7977,-0.0080,-0.0246,0.0023,0.0152,0.3995
1740035350.8077,-0.0082,-0.0207,0.0024,0.0098,0.2020
1740035350.8178,-0.0084,-0.0221,0.0026,0.0121,0.3527
1740035350.8280,-0.0086,-0.0186,0.0027,0.0073,0.1732
1740035350.8377,-0.0088,-0.0165,0.0027,0.0045,0.0748
1740035350.8477,-0.0089,-0.0132,0.0027,-0.0001,-0.1137
1740035350.8577,-0.0091,-0.0137,0.0027,0.0011,-0.0570
1740035350.8678,-0.0092,-0.0223,0.0028,0.0144,0.5360
1740035350.8778,-0.0094,-0.0174,0.0029,0.0074,0.2698
1740035350.8877,-0.0096,-0.0150,0.0029,0.0042,0.1511
1740035350.8977,-0.0098,-0.0269,0.0032,0.0224,1.0286
1740035350.9077,-0.0101,-0.0186,0.0033,0.0105,0.5673
1740035350.9177,-0.0104,-0.0311,0.0037,0.0295,1.5154
1740035350.9280,-0.0106,-0.0182,0.0039,0.0107,0.7668
1740035350.9377,-0.0111,-0.0378,0.0043,0.0406,2.2320
1740035350.9477,-0.0114,-0.0566,0.0046,0.0693,3.5980
1740035350.9577,-0.0118,-0.0264,0.0051,0.0246,1.8149
1740035350.9678,-0.0119,-0.0129,0.0052,0.0050,1.0154
1740035350.9777,-0.0124,-0.0438,0.0058,0.0520,3.2725
1740035350.9877,-0.0127,-0.0185,0.0061,0.0147,1.7810
1740035350.9977,-0.0132,-0.0422,0.0067,0.0512,3.5941
1740035351.0077,-0.0135,-0.0520,0.0070,0.0668,4.4083
1740035351.0177,-0.0138,-0.0158,0.0074,0.0134,2.2356
1740035351.0277,-0.0139,-0.0240,0.0074,0.0268,2.8543
1740035351.0377,-0.0140,-0.0011,0.0075,-0.0065,1.4622
1740035351.0477,-0.0140,-0.0033,0.0074,-0.0021,1.6397
1740035351.0577,-0.0140,0.0092,0.0073,-0.0198,0.8573
1740035351.0677,-0.0138,0.0145,0.0071,-0.0267,0.5064
1740035351.0777,-0.0137,0.0171,0.0068,-0.0295,0.3214
1740035351.0877,-0.0135,0.0187,0.0065,-0.0307,0.1899
1740035351.0978,-0.0133,0.0237,0.0062,-0.0374,-0.1813
1740035351.1078,-0.0131,0.0328,0.0058,-0.0501,-0.8434
1740035351.1178,-0.0128,0.0246,0.0053,-0.0368,-0.3825
1740035351.1277,-0.0125,0.0334,0.0050,-0.0492,-1.0172
1740035351.1377,-0.0123,0.0248,0.0046,-0.0354,-0.5253
1740035351.1477,-0.0121,0.0204,0.0044,-0.0283,-0.2850
1740035351.1577,-0.0119,0.0161,0.0041,-0.0210,-0.0408
1740035351.1677,-0.0118,0.0152,0.0039,-0.0190,0.0064
1740035351.1777,-0.0116,0.0141,0.0037,-0.0167,0.0571
1740035351.1877,-0.0115,0.0145,0.0036,-0.0166,0.0232
1740035351.1977,-0.0113,0.0139,0.0034,-0.0152,0.0508
1740035351.2077,-0.0112,0.0120,0.0033,-0.0119,0.1604
1740035351.2177,-0.0111,0.0126,0.0031,-0.0123,0.1197
1740035351.2277,-0.0109,0.0037,0.0030,0.0017,0.7073
1740035351.2377,-0.0109,0.0084,0.0030,-0.0050,0.4254
1740035351.2477,-0.0108,0.0114,0.0029,-0.0091,0.2377
1740035351.2577,-0.0108,-0.0048,0.0031,0.0155,1.3830
1740035351.2678,-0.0108,0.0031,0.0032,0.0041,0.9264
1740035351.2778,-0.0107,0.0124,0.0031,-0.0093,0.3453
1740035351.2881,-0.0106,-0.0003,0.0030,0.0103,1.1879
1740035351.2978,-0.0106,0.0079,0.0031,-0.0017,0.6928
1740035351.3077,-0.0105,0.0132,0.0030,-0.0092,0.3628
1740035351.3180,-0.0103,0.0154,0.0029,-0.0120,0.2247
1740035351.3277,-0.0102,-0.0011,0.0028,0.0132,1.3022
1740035351.3377,-0.0101,0.0090,0.0029,-0.0016,0.6949
1740035351.3477,-0.0100,0.0061,0.0028,0.0033,0.9077
1740035351.3577,-0.0099,0.0128,0.0028,-0.0064,0.4982
1740035351.3677,-0.0098,0.0084,0.0027,0.0006,0.7944
1740035351.3777,-0.0097,0.0142,0.0027,-0.0076,0.4419
1740035351.3877,-0.0095,0.0166,0.0026,-0.0109,0.2836
1740035351.3977,-0.0094,0.0139,0.0025,-0.0064,0.4806
1740035351.4077,-0.0092,0.0168,0.0025,-0.0104,0.2959
1740035351.4177,-0.0091,0.0130,0.0024,-0.0044,0.5625
1740035351.4277,-0.0090,0.0166,0.0023,-0.0093,0.3407
1740035351.4377,-0.0088,0.0152,0.0023,-0.0069,0.4443
1740035351.4477,-0.0087,0.0179,0.0022,-0.0105,0.2728
1740035351.4578,-0.0085,0.0192,0.0021,-0.0121,0.1813
1740035351.4678,-0.0083,0.0197,0.0020,-0.0126,0.1353
1740035351.4777,-0.0081,0.0199,0.0018,-0.0125,0.1121
1740035351.4877,-0.0079,0.0181,0.0017,-0.0095,0.2173
1740035351.4977,-0.0077,0.0190,0.0016,-0.0106,0.1526
1740035351.5077,-0.0075,0.0193,0.0015,-0.0108,0.1232
1740035351.5177,-0.0073,0.0259,0.0013,-0.0205,-0.3521
1740035351.5277,-0.0070,0.0220,0.0011,-0.0144,-0.1336
1740035351.5377,-0.0067,0.0324,0.0008,-0.0297,-0.8929
1740035351.5477,-0.0064,0.0394,0.0006,-0.0402,-1.4190
1740035351.5577,-0.0061,0.0267,0.0003,-0.0209,-0.6699
1740035351.5678,-0.0058,0.0452,0.0001,-0.0486,-1.9301
1740035351.5777,-0.0053,0.0567,-0.0005,-0.0657,-2.8697
1740035351.5877,-0.0049,0.0640,-0.0010,-0.0767,-3.5099
1740035351.5977,-0.0044,0.0340,-0.0015,-0.0317,-1.7222
1740035351.6077,-0.0042,0.0251,-0.0017,-0.0184,-1.1900
1740035351.6178,-0.0040,0.0127,-0.0018,0.0001,-0.4143
1740035351.6277,-0.0039,0.0084,-0.0017,0.0061,-0.1350
1740035351.6389,-0.0036,0.0340,-0.0020,-0.0324,-1.9018
1740035351.6478,-0.0033,0.0511,-0.0023,-0.0583,-3.1331
1740035351.6577,-0.0030,0.0273,-0.0026,-0.0227,-1.7024
1740035351.6677,-0.0027,0.0400,-0.0028,-0.0423,-2.6065
1740035351.6777,-0.0025,0.0182,-0.0030,-0.0098,-1.2804
1740035351.6877,-0.0023,0.0286,-0.0031,-0.0259,-2.0022
1740035351.6977,-0.0021,0.0120,-0.0032,-0.0014,-0.9806
1740035351.7078,-0.0020,0.0200,-0.0032,-0.0139,-1.5235
1740035351.7177,-0.0019,0.0075,-0.0032,0.0044,-0.7430
1740035351.7277,-0.0018,0.0161,-0.0031,-0.0090,-1.3114
1740035351.7378,-0.0017,0.0054,-0.0031,0.0066,-0.6385
1740035351.7477,-0.0017,0.0073,-0.0031,0.0033,-0.7595
1740035351.7577,-0.0017,0.0013,-0.0030,0.0119,-0.3636
1740035351.7677,-0.0017,0.0070,-0.0028,0.0028,-0.7222
1740035351.7777,-0.0016,0.0013,-0.0028,0.0110,-0.3459
1740035351.7877,-0.0016,-0.0011,-0.0027,0.0141,-0.1771
1740035351.7977,-0.0017,-0.0043,-0.0025,0.0185,0.0675
1740035351.8077,-0.0017,-0.0044,-0.0023,0.0182,0.1140
1740035351.8178,-0.0018,-0.0057,-0.0021,0.0199,0.2419
1740035351.8277,-0.0018,-0.0063,-0.0019,0.0204,0.3218
1740035351.8377,-0.0018,-0.0037,-0.0018,0.0162,0.1904
1740035351.8477,-0.0019,-0.0018,-0.0016,0.0131,0.1027
1740035351.8577,-0.0019,-0.0063,-0.0014,0.0196,0.4500
1740035351.8677,-0.0020,-0.0027,-0.0013,0.0139,0.2587
1740035351.8777,-0.0020,-0.0005,-0.0011,0.0104,0.1442
1740035351.8877,-0.0020,-0.0057,-0.0010,0.0180,0.5096
1740035351.8977,-0.0020,-0.0014,-0.0009,0.0114,0.2697
1740035351.9077,-0.0020,0.0006,-0.0008,0.0082,0.1620
1740035351.9177,-0.0020,0.0019,-0.0007,0.0061,0.0959
1740035351.9277,-0.0020,0.0027,-0.0007,0.0048,0.0592
1740035351.9377,-0.0020,0.0031,-0.0006,0.0041,0.0443
1740035351.9477,-0.0019,0.0034,-0.0006,0.0036,0.0367
1740035351.9577,-0.0019,0.0035,-0.0006,0.0032,0.0328
1740035351.9678,-0.0019,0.0131,-0.0006,-0.0112,-0.5883
1740035351.9777,-0.0018,0.0080,-0.0006,-0.0036,-0.2803
1740035351.9877,-0.0017,0.0207,-0.0007,-0.0227,-1.1238
1740035351.9977,-0.0015,0.0111,-0.0008,-0.0084,-0.5491
1740035352.0080,-0.0015,0.0078,-0.0008,-0.0035,-0.3492
1740035352.0180,-0.0009,0.0460,-0.0015,-0.0609,-3.0764
1740035352.0278,-0.0006,0.0450,-0.0020,-0.0595,-3.1653
1740035352.0380,-0.0003,0.0211,-0.0023,-0.0238,-1.7370
1740035352.0493,-0.0002,0.0085,-0.0024,-0.0052,-0.9631
1740035352.0577,0.0002,0.0505,-0.0030,-0.0683,-3.9049
1740035352.0677,0.0005,0.0203,-0.0034,-0.0234,-2.1095
1740035352.0778,0.0008,0.0270,-0.0038,-0.0337,-2.6859
1740035352.0877,0.0010,0.0073,-0.0039,-0.0046,-1.4803
1740035352.0977,0.0012,0.0118,-0.0041,-0.0119,-1.8937
1740035352.1077,0.0012,-0.0018,-0.0042,0.0079,-1.0463
1740035352.1177,0.0011,-0.0103,-0.0040,0.0201,-0.4817
1740035352.1277,0.0010,-0.0139,-0.0038,0.0247,-0.2148
1740035352.1379,0.0009,-0.0078,-0.0036,0.0150,-0.6019
1740035352.1477,0.0008,-0.0117,-0.0034,0.0203,-0.3268
1740035352.1577,0.0007,-0.0178,-0.0032,0.0290,0.1336
1740035352.1677,0.0005,-0.0163,-0.0029,0.0261,0.0870
1740035352.1777,0.0002,-0.0232,-0.0025,0.0360,0.6357
1740035352.1877,0.0000,-0.0176,-0.0022,0.0271,0.3439
1740035352.1977,-0.0003,-0.0297,-0.0017,0.0448,1.2665
1740035352.2077,-0.0005,-0.0436,-0.0013,0.0654,2.2928
1740035352.2177,-0.0009,-0.0238,-0.0008,0.0354,1.1459
1740035352.2277,-0.0011,-0.0392,-0.0005,0.0583,2.2413
1740035352.2377,-0.0014,-0.0200,-0.0001,0.0293,1.1223
1740035352.2477,-0.0015,-0.0334,0.0001,0.0494,2.0768
1740035352.2577,-0.0018,-0.0158,0.0005,0.0229,1.0419
1740035352.2677,-0.0019,-0.0308,0.0007,0.0455,2.0911
1740035352.2777,-0.0021,-0.0150,0.0010,0.0217,1.1564
1740035352.2878,-0.0022,-0.0047,0.0011,0.0063,0.5337
1740035352.2977,-0.0024,-0.0202,0.0014,0.0297,1.6687
1740035352.3077,-0.0025,-0.0073,0.0016,0.0105,0.9037
1740035352.3177,-0.0027,-0.0163,0.0019,0.0241,1.6042
1740035352.3277,-0.0028,-0.0037,0.0021,0.0055,0.8501
1740035352.3377,-0.0028,0.0030,0.0021,-0.0042,0.4357
1740035352.3477,-0.0028,-0.0047,0.0020,0.0076,0.9430
1740035352.3577,-0.0028,0.0028,0.0020,-0.0033,0.4828
1740035352.3677,-0.0028,-0.0091,0.0020,0.0148,1.2660
1740035352.3777,-0.0028,0.0011,0.0021,-0.0002,0.6451
1740035352.3877,-0.0028,-0.0107,0.0020,0.0178,1.4324
1740035352.3977,-0.0028,0.0008,0.0021,0.0008,0.7293
1740035352.4077,-0.0028,-0.0108,0.0021,0.0187,1.5125
1740035352.4177,-0.0029,0.0013,0.0022,0.0007,0.7703
1740035352.4277,-0.0028,-0.0071,0.0022,0.0136,1.3359
1740035352.4377,-0.0028,0.0036,0.0022,-0.0020,0.6829
1740035352.4477,-0.0028,0.0066,0.0022,-0.0064,0.4884
1740035352.4578,-0.0030,-0.0681,0.0026,0.1059,5.5167
1740035352.4677,-0.0036,-0.0553,0.0035,0.0869,5.0185
1740035352.4781,-0.0039,-0.0303,0.0039,0.0496,3.5355
1740035352.4878,-0.0040,-0.0065,0.0041,0.0143,2.1002
1740035352.4978,-0.0040,0.0100,0.0042,-0.0098,1.0739
1740035352.5077,-0.0038,0.0170,0.0040,-0.0197,0.6131
1740035352.5177,-0.0037,0.0168,0.0039,-0.0188,0.6154
1740035352.5277,-0.0035,0.0207,0.0036,-0.0241,0.3321
1740035352.5377,-0.0032,0.0348,0.0033,-0.0447,-0.6703
1740035352.5477,-0.0029,0.0462,0.0029,-0.0612,-1.5023
1740035352.5577,-0.0025,0.0324,0.0024,-0.0400,-0.7292
1740035352.5677,-0.0022,0.0402,0.0020,-0.0513,-1.3295
1740035352.5777,-0.0019,0.0281,0.0016,-0.0327,-0.6446
1740035352.5877,-0.0016,0.0417,0.0013,-0.0528,-1.6129
1740035352.5977,-0.0013,0.0273,0.0009,-0.0309,-0.7883
1740035352.6077,-0.0011,0.0276,0.0007,-0.0312,-0.8780
1740035352.6177,-0.0008,0.0196,0.0004,-0.0190,-0.4224
1740035352.6277,-0.0007,0.0162,0.0003,-0.0138,-0.2438
1740035352.6377,-0.0005,0.0137,0.0001,-0.0099,-0.1064
1740035352.6477,-0.0004,0.0006,0.0001,0.0097,0.7308
1740035352.6577,-0.0004,0.0057,0.0001,0.0020,0.4160
1740035352.6677,-0.0003,0.0090,0.0001,-0.0029,0.2059
1740035352.6792,-0.0004,-0.0090,0.0003,0.0241,1.4540
1740035352.6877,-0.0005,-0.0336,0.0006,0.0611,3.1505
1740035352.6977,-0.0006,-0.0076,0.0010,0.0220,1.5923
1740035352.7082,-0.0007,0.0039,0.0011,0.0049,0.8927
1740035352.7177,-0.0013,-0.0587,0.0022,0.0988,5.3668
1740035352.7277,-0.0017,-0.0586,0.0029,0.0988,5.6113
1740035352.7377,-0.0020,-0.0125,0.0035,0.0298,2.8312
1740035352.7478,-0.0021,0.0056,0.0036,0.0031,1.7236
1740035352.7578,-0.0019,0.0195,0.0035,-0.0173,0.8289
1740035352.7677,-0.0017,0.0245,0.0033,-0.0242,0.4806
1740035352.7777,-0.0017,0.0067,0.0034,0.0030,1.7011
1740035352.7877,-0.0015,0.0067,0.0033,0.0035,1.7232
1740035352.7977,-0.0014,0.0197,0.0032,-0.0156,1.1945
1740035352.8113,-0.0012,0.0286,0.0030,-0.0285,0.4309
1740035352.8177,-0.0008,0.0383,0.0027,-0.0425,-0.4529
1740035352.8278,-0.0005,0.0336,0.0023,-0.0350,-0.1732
1740035352.8377,-0.0001,0.0386,0.0019,-0.0421,-0.7237
1740035352.8477,0.0002,0.0527,0.0015,-0.0629,-1.9975
1740035352.8577,0.0007,0.0349,0.0010,-0.0358,-0.7216
1740035352.8677,0.0010,0.0508,0.0007,-0.0594,-2.1230
1740035352.8777,0.0014,0.0321,0.0003,-0.0311,-0.7710
1740035352.8877,0.0017,0.0539,-0.0000,-0.0637,-2.6471
1740035352.8977,0.0021,0.0310,-0.0005,-0.0293,-0.9694
1740035352.9077,0.0024,0.0459,-0.0007,-0.0517,-2.2848
1740035352.9177,0.0027,0.0301,-0.0011,-0.0280,-1.1304
1740035352.9277,0.0030,0.0398,-0.0013,-0.0426,-2.0130
1740035352.9377,0.0033,0.0225,-0.0016,-0.0168,-0.7379
1740035352.9477,0.0035,0.0166,-0.0017,-0.0081,-0.3112
1740035352.9577,0.0037,0.0253,-0.0019,-0.0214,-1.1312
1740035352.9677,0.0039,0.0162,-0.0020,-0.0079,-0.4674
1740035352.9778,0.0041,0.0236,-0.0022,-0.0193,-1.1591
1740035352.9877,0.0043,0.0164,-0.0024,-0.0088,-0.6559
1740035352.9977,0.0045,0.0110,-0.0024,-0.0009,-0.2469
1740035353.0077,0.0046,0.0084,-0.0024,0.0026,-0.0589
1740035353.0178,0.0047,0.0151,-0.0025,-0.0078,-0.6528
1740035353.0278,0.0048,0.0234,-0.0025,-0.0205,-1.3684
1740035353.0377,0.0050,0.0119,-0.0026,-0.0036,-0.5082
1740035353.0477,0.0051,0.0272,-0.0027,-0.0270,-1.7929
1740035353.0577,0.0053,0.0122,-0.0028,-0.0049,-0.6689
1740035353.0677,0.0054,0.0351,-0.0029,-0.0397,-2.5765
1740035353.0777,0.0056,0.0158,-0.0031,-0.0110,-1.1277
1740035353.0877,0.0057,0.0054,-0.0031,0.0041,-0.3268
1740035353.0977,0.0061,0.0310,-0.0035,-0.0347,-2.5924
1740035353.1077,0.0063,0.0331,-0.0037,-0.0382,-2.8827
1740035353.1178,0.0065,0.0140,-0.0038,-0.0100,-1.4490
1740035353.1277,0.0065,0.0035,-0.0039,0.0053,-0.6413
1740035353.1377,0.0068,0.0208,-0.0041,-0.0211,-2.1936
1740035353.1478,0.0069,0.0065,-0.0042,-0.0002,-1.1072
1740035353.1577,0.0069,-0.0013,-0.0041,0.0110,-0.4954
1740035353.1677,0.0068,-0.0054,-0.0040,0.0164,-0.1574
1740035353.1777,0.0068,-0.0061,-0.0038,0.0170,-0.0730
1740035353.1877,0.0067,-0.0140,-0.0036,0.0281,0.5896
1740035353.1977,0.0066,-0.0086,-0.0034,0.0194,0.2051
1740035353.2078,0.0065,-0.0301,-0.0032,0.0512,1.9967
1740035353.2177,0.0063,-0.0147,-0.0029,0.0276,0.8588
1740035353.2277,0.0062,-0.0064,-0.0027,0.0146,0.2288
1740035353.2377,0.0060,-0.0233,-0.0022,0.0395,1.7428
1740035353.2477,0.0058,-0.0330,-0.0019,0.0538,2.6353
1740035353.2577,0.0056,-0.0110,-0.0016,0.0203,0.9696
1740035353.2677,0.0055,-0.0217,-0.0014,0.0361,1.8895
1740035353.2777,0.0054,-0.0075,-0.0012,0.0146,0.8132
1740035353.2877,0.0054,0.0001,-0.0011,0.0030,0.2173
1740035353.2977,0.0053,-0.0080,-0.0010,0.0149,0.9292
1740035353.3077,0.0052,-0.0009,-0.0009,0.0041,0.3809
1740035353.3177,0.0053,0.0082,-0.0009,-0.0096,-0.3980
1740035353.3277,0.0054,0.0296,-0.0010,-0.0419,-2.1905
1740035353.3377,0.0056,0.0113,-0.0013,-0.0146,-0.8335
1740035353.3477,0.0056,0.0058,-0.0014,-0.0064,-0.4301
1740035353.3577,0.0057,0.0016,-0.0014,-0.0004,-0.1232
1740035353.3677,0.0057,0.0497,-0.0015,-0.0727,-4.0696
1740035353.3803,0.0060,0.0192,-0.0019,-0.0271,-1.7951
1740035353.3877,0.0061,0.0007,-0.0020,0.0005,-0.3465
1740035353.3977,0.0061,-0.0030,-0.0020,0.0058,-0.0519
1740035353.4077,0.0060,-0.0034,-0.0019,0.0061,-0.0197
1740035353.4177,0.0064,0.0397,-0.0025,-0.0588,-3.7938
1740035353.4277,0.0067,0.0145,-0.0028,-0.0212,-1.9318
1740035353.4378,0.0071,0.0332,-0.0035,-0.0495,-3.7412
1740035353.4477,0.0073,0.0285,-0.0037,-0.0429,-3.5263
1740035353.4577,0.0074,-0.0000,-0.0039,-0.0006,-1.3454
1740035353.4677,0.0074,-0.0018,-0.0039,0.0014,-1.2334
1740035353.4777,0.0073,-0.0111,-0.0038,0.0149,-0.4908
1740035353.4877,0.0072,-0.0211,-0.0036,0.0293,0.3453
1740035353.4977,0.0070,-0.0174,-0.0033,0.0231,0.0982
1740035353.5077,0.0068,-0.0312,-0.0031,0.0433,1.2733
1740035353.5193,0.0066,-0.0243,-0.0029,0.0326,0.7797
1740035353.5277,0.0064,-0.0386,-0.0026,0.0535,2.0252
1740035353.5377,0.0061,-0.0228,-0.0022,0.0293,0.8582
1740035353.5477,0.0059,-0.0386,-0.0019,0.0527,2.2134
1740035353.5577,0.0056,-0.0196,-0.0016,0.0238,0.7976
1740035353.5677,0.0054,-0.0311,-0.0014,0.0407,1.7847
1740035353.5777,0.0052,-0.0158,-0.0011,0.0174,0.6385
1740035353.5877,0.0051,-0.0219,-0.0010,0.0265,1.1789
1740035353.5977,0.0049,-0.0118,-0.0008,0.0110,0.4132
1740035353.6077,0.0048,-0.0179,-0.0007,0.0202,0.9396
1740035353.6177,0.0047,-0.0114,-0.0006,0.0103,0.4492
1740035353.6277,0.0046,-0.0101,-0.0005,0.0082,0.3585
1740035353.6377,0.0045,-0.0069,-0.0004,0.0033,0.1079
1740035353.6477,0.0045,-0.0060,-0.0004,0.0018,0.0334
1740035353.6577,0.0044,-0.0070,-0.0004,0.0033,0.1196
1740035353.6678,0.0043,-0.0058,-0.0004,0.0015,0.0249
1740035353.6777,0.0042,-0.0141,-0.0002,0.0138,0.7488
1740035353.6877,0.0041,-0.0082,-0.0001,0.0049,0.3035
1740035353.6978,0.0038,-0.0191,0.0001,0.0212,1.2861
1740035353.7078,0.0037,-0.0290,0.0003,0.0360,2.1509
1740035353.7178,0.0035,-0.0181,0.0004,0.0197,1.3343
1740035353.7277,0.0034,-0.0046,0.0005,-0.0005,0.2786
1740035353.7378,0.0034,-0.0015,0.0005,-0.0052,0.0112
1740035353.7478,0.0034,-0.0302,0.0005,0.0380,2.3415
1740035353.7578,0.0032,-0.0165,0.0007,0.0174,1.3051
1740035353.7677,0.0031,-0.0080,0.0007,0.0048,0.6523
1740035353.7777,0.0031,-0.0026,0.0007,-0.0032,0.2233
1740035353.7878,0.0031,-0.0010,0.0007,-0.0055,0.0834
1740035353.7980,0.0031,-0.0005,0.0007,-0.0062,0.0259
1740035353.8078,0.0030,-0.0206,0.0006,0.0241,1.6409
1740035353.8193,0.0029,-0.0096,0.0007,0.0077,0.8058
1740035353.8277,0.0029,-0.0004,0.0007,-0.0060,0.0602
1740035353.8378,0.0029,0.0001,0.0007,-0.0066,-0.0019
1740035353.8478,0.0029,0.0077,0.0006,-0.0179,-0.6476
1740035353.8577,0.0029,0.0060,0.0005,-0.0154,-0.5328
1740035353.8677,0.0029,0.0019,0.0004,-0.0092,-0.2419
1740035353.8777,0.0030,-0.0005,0.0004,-0.0054,-0.0758
1740035353.8878,0.0030,0.0296,0.0003,-0.0505,-2.5497
1740035353.8978,0.0032,0.0084,-0.0001,-0.0186,-0.9712
1740035353.9078,0.0032,0.0282,-0.0002,-0.0483,-2.6534
1740035353.9177,0.0034,0.0063,-0.0005,-0.0154,-1.0110
1740035353.9278,0.0034,-0.0010,-0.0006,-0.0044,-0.4605
1740035353.9377,0.0034,-0.0058,-0.0006,0.0026,-0.0913
1740035353.9478,0.0033,-0.0062,-0.0006,0.0031,-0.0548
1740035353.9577,0.0032,-0.0064,-0.0006,0.0033,-0.0411
1740035353.9677,0.0032,-0.0034,-0.0005,-0.0013,-0.2819
1740035353.9777,0.0031,-0.0054,-0.0005,0.0017,-0.1258
1740035353.9877,0.0030,-0.0223,-0.0005,0.0269,1.2494
1740035353.9978,0.0030,-0.0223,-0.0005,0.0269,1.2494
1740035354.0077,0.0028,-0.0350,-0.0002,0.0458,2.3699
1740035354.0177,0.0026,-0.0150,0.0001,0.0157,0.8660
1740035354.0277,0.0025,-0.0076,0.0002,0.0046,0.3051
1740035354.0377,0.0024,-0.0049,0.0002,0.0006,0.0959
1740035354.0477,0.0023,-0.0038,0.0002,-0.0010,0.0040
1740035354.0577,0.0019,-0.0476,0.0008,0.0645,3.7965
1740035354.0677,0.0015,-0.0692,0.0013,0.0970,5.7664
1740035354.0778,0.0011,-0.0213,0.0019,0.0252,2.1403
1740035354.0878,0.0009,-0.0502,0.0020,0.0688,4.5762
1740035354.0977,0.0007,-0.0125,0.0024,0.0124,1.6987
1740035354.1077,0.0006,0.0012,0.0024,-0.0078,0.6253
1740035354.1177,0.0006,0.0059,0.0023,-0.0145,0.2250
1740035354.1277,0.0007,0.0074,0.0022,-0.0165,0.0641
1740035354.1378,0.0008,0.0077,0.0020,-0.0166,-0.0058
1740035354.1478,0.0008,0.0073,0.0019,-0.0156,-0.0097
1740035354.1577,0.0009,0.0026,0.0018,-0.0083,0.3555
1740035354.1677,0.0009,0.0137,0.0016,-0.0246,-0.5662
1740035354.1777,0.0010,0.0091,0.0015,-0.0174,-0.2543
1740035354.1877,0.0011,0.0064,0.0013,-0.0132,-0.0817
1740035354.1978,0.0013,0.0182,0.0010,-0.0307,-1.1453
1740035354.2078,0.0014,0.0245,0.0007,-0.0399,-1.7631
1740035354.2177,0.0016,0.0097,0.0005,-0.0174,-0.6674
1740035354.2277,0.0017,0.0057,0.0004,-0.0114,-0.3826
1740035354.2377,0.0017,0.0011,0.0003,-0.0045,-0.0477
1740035354.2477,0.0017,0.0136,0.0002,-0.0231,-1.0790
1740035354.2577,0.0018,0.0046,0.0001,-0.0095,-0.4126
1740035354.2677,0.0018,0.0130,-0.0000,-0.0221,-1.1308
1740035354.2777,0.0019,0.0036,-0.0002,-0.0080,-0.4325
1740035354.2877,0.0019,0.0070,-0.0002,-0.0131,-0.7373
1740035354.2977,0.0020,0.0021,-0.0003,-0.0058,-0.3774
1740035354.3077,0.0020,0.0031,-0.0003,-0.0072,-0.4704
1740035354.3177,0.0020,-0.0007,-0.0004,-0.0016,-0.1865
1740035354.3277,0.0020,0.0042,-0.0004,-0.0090,-0.5966
1740035354.3377,0.0020,-0.0007,-0.0004,-0.0018,-0.2339
1740035354.3477,0.0020,0.0082,-0.0004,-0.0152,-0.9679
1740035354.3577,0.0020,0.0003,-0.0005,-0.0034,-0.3728
1740035354.3677,0.0020,-0.0020,-0.0005,0.0001,-0.1958
1740035354.3778,0.0020,-0.0037,-0.0005,0.0025,-0.0609
1740035354.3877,0.0020,0.0229,-0.0005,-0.0375,-2.2327
1740035354.3978,0.0021,0.0045,-0.0008,-0.0099,-0.8458
1740035354.4077,0.0021,0.0281,-0.0009,-0.0455,-2.8090
1740035354.4178,0.0023,0.0050,-0.0011,-0.0109,-1.0621
1740035354.4278,0.0023,-0.0017,-0.0012,-0.0008,-0.5425
1740035354.4378,0.0022,-0.0079,-0.0011,0.0082,-0.0437
1740035354.4477,0.0021,-0.0082,-0.0010,0.0085,0.0034
1740035354.4577,0.0023,0.0155,-0.0013,-0.0272,-2.0547
1740035354.4677,0.0024,0.0038,-0.0014,-0.0097,-1.1777
1740035354.4777,0.0025,0.0164,-0.0017,-0.0287,-2.3159
1740035354.4877,0.0026,0.0114,-0.0019,-0.0214,-2.0100
1740035354.4977,0.0026,-0.0047,-0.0019,0.0025,-0.7678
1740035354.5077,0.0026,-0.0133,-0.0019,0.0152,-0.0660
1740035354.5177,0.0024,-0.0132,-0.0017,0.0147,-0.0421
1740035354.5277,0.0023,-0.0290,-0.0015,0.0380,1.2797
1740035354.5379,0.0021,-0.0210,-0.0013,0.0259,0.7095
1740035354.5478,0.0019,-0.0141,-0.0011,0.0153,0.2101
1740035354.5581,0.0017,-0.0261,-0.0008,0.0330,1.3073
1740035354.5677,0.0015,-0.0190,-0.0006,0.0221,0.7993
1740035354.5779,0.0014,-0.0111,-0.0004,0.0103,0.2155
1740035354.5877,0.0013,-0.0092,-0.0004,0.0073,0.0812
1740035354.5977,0.0010,-0.0264,0.0000,0.0330,1.6284
1740035354.6078,0.0008,-0.0283,0.0003,0.0357,1.8739
1740035354.6177,0.0006,-0.0125,0.0005,0.0120,0.6879
1740035354.6278,0.0005,-0.0072,0.0006,0.0041,0.2905
1740035354.6377,0.0003,-0.0133,0.0007,0.0133,0.8532
1740035354.6477,0.0002,-0.0088,0.0008,0.0067,0.5312
1740035354.6578,0.0002,-0.0041,0.0008,-0.0002,0.1670
1740035354.6677,0.0002,-0.0024,0.0008,-0.0027,0.0286
1740035354.6777,0.0004,0.0192,0.0004,-0.0350,-1.8871
1740035354.6878,0.0005,0.0317,0.0001,-0.0536,-3.0076
1740035354.6981,0.0007,0.0093,-0.0002,-0.0199,-1.3243
1740035354.7077,0.0007,0.0290,-0.0003,-0.0495,-2.9722
1740035354.7178,0.0009,0.0046,-0.0006,-0.0128,-1.1217
1740035354.7278,0.0009,-0.0035,-0.0006,-0.0007,-0.5013
1740035354.7377,0.0012,0.0278,-0.0011,-0.0476,-3.2622
1740035354.7477,0.0013,0.0033,-0.0014,-0.0110,-1.4181
1740035354.7577,0.0016,0.0273,-0.0020,-0.0471,-3.6225
1740035354.7678,0.0018,0.0026,-0.0022,-0.0101,-1.7462
1740035354.7778,0.0021,0.0216,-0.0027,-0.0389,-3.5290
1740035354.7887,0.0021,-0.0012,-0.0029,-0.0050,-1.7818
1740035354.7980,0.0021,-0.0122,-0.0028,0.0112,-0.9078
1740035354.8094,0.0020,-0.0142,-0.0028,0.0140,-0.7453
1740035354.8193,0.0020,-0.0142,-0.0028,0.0140,-0.7453
1740035354.8279,0.0025,0.0706,-0.0036,-0.1136,-7.9928
1740035354.8403,0.0030,0.1094,-0.0044,-0.1719,-11.5102
1740035354.8478,0.0037,0.0909,-0.0054,-0.1442,-10.4875
1740035354.8578,0.0042,0.0444,-0.0062,-0.0748,-7.1071
1740035354.8678,0.0043,-0.0115,-0.0065,0.0083,-2.7809
1740035354.8778,0.0041,-0.0263,-0.0064,0.0297,-1.5915
1740035354.8877,0.0037,-0.0428,-0.0059,0.0533,-0.1473
1740035354.8977,0.0033,-0.0418,-0.0053,0.0507,-0.0833
1740035354.9077,0.0028,-0.0432,-0.0047,0.0518,0.1717
1740035354.9178,0.0025,-0.0405,-0.0044,0.0471,0.0595
1740035354.9277,0.0022,-0.0385,-0.0040,0.0436,-0.0037
1740035354.9377,0.0017,-0.0366,-0.0035,0.0399,-0.0365
1740035354.9477,0.0014,-0.0352,-0.0031,0.0372,-0.0450
1740035354.9578,0.0009,-0.0435,-0.0026,0.0491,0.8043
1740035354.9678,0.0005,-0.0479,-0.0022,0.0551,1.2972
1740035354.9777,-0.0000,-0.0482,-0.0015,0.0551,1.5482
1740035354.9877,-0.0004,-0.0340,-0.0011,0.0335,0.5516
1740035354.9977,-0.0009,-0.0409,-0.0006,0.0435,1.3013
1740035355.0078,-0.0011,-0.0524,-0.0004,0.0608,2.3066
1740035355.0178,-0.0015,-0.0323,0.0001,0.0303,0.8385
1740035355.0278,-0.0018,-0.0440,0.0004,0.0479,1.8970
1740035355.0377,-0.0022,-0.0274,0.0007,0.0229,0.6883
1740035355.0477,-0.0024,-0.0209,0.0009,0.0133,0.2382
1740035355.0577,-0.0029,-0.0422,0.0014,0.0453,2.1853
1740035355.0677,-0.0033,-0.0574,0.0017,0.0682,3.5736
1740035355.0777,-0.0037,-0.0273,0.0022,0.0231,1.3210
1740035355.0877,-0.0039,-0.0142,0.0023,0.0038,0.3301
1740035355.0977,-0.0042,-0.0334,0.0027,0.0329,2.0731
1740035355.1077,-0.0045,-0.0378,0.0029,0.0399,2.5515
1740035355.1177,-0.0048,-0.0165,0.0031,0.0083,0.9461
1740035355.1277,-0.0049,-0.0228,0.0032,0.0182,1.5044
1740035355.1377,-0.0051,-0.0103,0.0032,-0.0002,0.5577
1740035355.1477,-0.0051,-0.0057,0.0032,-0.0065,0.2052
1740035355.1577,-0.0053,-0.0108,0.0032,0.0015,0.6616
1740035355.1677,-0.0053,-0.0057,0.0032,-0.0056,0.2768
1740035355.1777,-0.0053,0.0008,0.0031,-0.0148,-0.2734
1740035355.1877,-0.0053,-0.0012,0.0029,-0.0115,-0.1386
1740035355.1977,-0.0053,-0.0007,0.0028,-0.0117,-0.2003
1740035355.2077,-0.0054,-0.0023,0.0027,-0.0088,-0.0773
1740035355.2177,-0.0053,0.0071,0.0025,-0.0224,-0.9151
1740035355.2277,-0.0052,0.0002,0.0023,-0.0117,-0.3979
1740035355.2377,-0.0051,0.0111,0.0020,-0.0277,-1.3888
1740035355.2477,-0.0051,0.0005,0.0018,-0.0114,-0.5829
1740035355.2577,-0.0050,0.0059,0.0016,-0.0192,-1.1008
1740035355.2677,-0.0050,-0.0027,0.0015,-0.0061,-0.4433
1740035355.2777,-0.0049,0.0036,0.0013,-0.0152,-1.0127
1740035355.2877,-0.0049,-0.0041,0.0012,-0.0034,-0.4136
1740035355.2977,-0.0049,-0.0032,0.0011,-0.0046,-0.5068
1740035355.3077,-0.0050,-0.0071,0.0011,0.0013,-0.1921
1740035355.3177,-0.0050,-0.0055,0.0011,-0.0009,-0.3201
1740035355.3277,-0.0051,-0.0078,0.0011,0.0028,-0.1153
1740035355.3377,-0.0052,-0.0085,0.0011,0.0039,-0.0383
1740035355.3477,-0.0053,-0.0178,0.0012,0.0180,0.7487
1740035355.3577,-0.0054,-0.0113,0.0013,0.0084,0.2856
1740035355.3677,-0.0055,-0.0285,0.0014,0.0345,1.7368
1740035355.3777,-0.0057,-0.0139,0.0016,0.0126,0.6563
1740035355.3877,-0.0059,-0.0332,0.0018,0.0419,2.2945
1740035355.4003,-0.0060,-0.0216,0.0019,0.0246,1.4436
1740035355.4077,-0.0062,-0.0302,0.0021,0.0379,2.2291
1740035355.4177,-0.0064,-0.0117,0.0023,0.0103,0.8442
1740035355.4277,-0.0065,-0.0308,0.0024,0.0393,2.4600
1740035355.4377,-0.0067,-0.0105,0.0026,0.0091,0.9327
1740035355.4477,-0.0068,-0.0368,0.0027,0.0489,3.1314
1740035355.4577,-0.0070,-0.0110,0.0030,0.0105,1.1857
1740035355.4677,-0.0071,-0.0337,0.0031,0.0450,3.0962
1740035355.4777,-0.0073,-0.0083,0.0033,0.0073,1.1751
1740035355.4877,-0.0074,-0.0269,0.0033,0.0356,2.7414
1740035355.4977,-0.0075,-0.0045,0.0035,0.0026,1.0449
1740035355.5077,-0.0075,-0.0268,0.0035,0.0365,2.8978
1740035355.5177,-0.0077,-0.0032,0.0037,0.0016,1.1056
1740035355.5277,-0.0077,-0.0165,0.0037,0.0222,2.2270
1740035355.5377,-0.0077,0.0013,0.0037,-0.0042,0.8571
1740035355.5477,-0.0077,-0.0044,0.0037,0.0050,1.3380
1740035355.5577,-0.0077,0.0061,0.0036,-0.0101,0.5267
1740035355.5677,-0.0076,0.0015,0.0035,-0.0027,0.8972
1740035355.5777,-0.0076,0.0083,0.0034,-0.0123,0.3632
1740035355.5877,-0.0075,0.0167,0.0033,-0.0245,-0.3400
1740035355.5977,-0.0073,0.0132,0.0031,-0.0187,-0.0982
1740035355.6077,-0.0072,0.0229,0.0029,-0.0327,-0.9190
1740035355.6177,-0.0070,0.0146,0.0026,-0.0198,-0.3143
1740035355.6277,-0.0069,0.0319,0.0024,-0.0453,-1.7642
1740035355.6377,-0.0066,0.0167,0.0021,-0.0220,-0.6302
1740035355.6477,-0.0065,0.0346,0.0019,-0.0485,-2.1367
1740035355.6577,-0.0062,0.0163,0.0016,-0.0208,-0.7700
1740035355.6677,-0.0061,0.0360,0.0014,-0.0500,-2.4200
1740035355.6777,-0.0058,0.0155,0.0011,-0.0190,-0.8768
1740035355.6877,-0.0057,0.0337,0.0009,-0.0461,-2.4047
1740035355.6977,-0.0055,0.0135,0.0006,-0.0156,-0.8721
1740035355.7077,-0.0053,0.0306,0.0005,-0.0411,-2.3006
1740035355.7177,-0.0051,0.0113,0.0002,-0.0121,-0.8343
1740035355.7277,-0.0050,0.0257,0.0001,-0.0337,-2.0385
1740035355.7377,-0.0049,0.0087,-0.0001,-0.0081,-0.7374
1740035355.7477,-0.0048,0.0227,-0.0001,-0.0291,-1.8940
1740035355.7577,-0.0047,0.0070,-0.0003,-0.0054,-0.6844
1740035355.7677,-0.0046,0.0111,-0.0003,-0.0116,-1.0257
1740035355.7777,-0.0045,0.0026,-0.0004,0.0010,-0.3608
1740035355.7877,-0.0045,0.0022,-0.0003,0.0016,-0.3157
1740035355.7978,-0.0045,-0.0001,-0.0003,0.0050,-0.1183
1740035355.8078,-0.0045,-0.0012,-0.0002,0.0066,-0.0056
1740035355.8179,-0.0046,-0.0039,-0.0001,0.0106,0.2580
1740035355.8281,-0.0046,-0.0076,-0.0001,0.0161,0.5928
1740035355.8378,-0.0047,-0.0031,0.0001,0.0094,0.2791
1740035355.8477,-0.0047,-0.0040,0.0001,0.0107,0.3858
1740035355.8577,-0.0047,-0.0008,0.0002,0.0059,0.1667
1740035355.8677,-0.0047,-0.0004,0.0003,0.0053,0.1608
1740035355.8777,-0.0047,0.0008,0.0003,0.0035,0.0828
1740035355.8877,-0.0047,0.0030,0.0003,0.0002,-0.0785
1740035355.8978,-0.0047,0.0024,0.0003,0.0012,-0.0138
1740035355.9078,-0.0046,-0.0018,0.0004,0.0075,0.3388
1740035355.9178,-0.0046,0.0009,0.0004,0.0035,0.1495
1740035355.9278,-0.0046,0.0019,0.0004,0.0020,0.0860
1740035355.9377,-0.0046,0.0023,0.0005,0.0015,0.0702
1740035355.9477,-0.0046,0.0030,0.0005,0.0006,0.0314
1740035355.9577,-0.0046,0.0031,0.0005,0.0005,0.0349
1740035355.9677,-0.0045,-0.0034,0.0005,0.0103,0.5761
1740035355.9777,-0.0045,0.0012,0.0006,0.0034,0.2384
1740035355.9877,-0.0045,-0.0018,0.0006,0.0080,0.5045
1740035355.9977,-0.0045,0.0022,0.0006,0.0021,0.2119
1740035356.0077,-0.0045,0.0035,0.0006,0.0002,0.1198
1740035356.0177,-0.0044,0.0043,0.0006,-0.0009,0.0684
1740035356.0277,-0.0044,0.0016,0.0006,0.0033,0.2988
1740035356.0377,-0.0044,0.0038,0.0006,0.0000,0.1352
1740035356.0477,-0.0043,0.0087,0.0006,-0.0072,-0.2504
1740035356.0577,-0.0043,0.0063,0.0006,-0.0035,-0.0699
1740035356.0677,-0.0042,0.0173,0.0005,-0.0200,-0.9709
1740035356.0777,-0.0041,0.0090,0.0004,-0.0074,-0.3394
1740035356.0877,-0.0040,0.0251,0.0003,-0.0314,-1.6633
1740035356.0977,-0.0038,0.0110,0.0001,-0.0102,-0.5987
1740035356.1077,-0.0037,0.0304,0.0000,-0.0392,-2.2041
1740035356.1177,-0.0035,0.0119,-0.0002,-0.0114,-0.8018
1740035356.1277,-0.0034,0.0400,-0.0003,-0.0536,-3.1234
1740035356.1377,-0.0031,0.0139,-0.0006,-0.0145,-1.1465
1740035356.1477,-0.0030,0.0479,-0.0008,-0.0656,-3.9631
1740035356.1577,-0.0027,0.0150,-0.0011,-0.0162,-1.4620
1740035356.1677,-0.0026,0.0440,-0.0013,-0.0598,-3.8749
1740035356.1777,-0.0023,0.0120,-0.0016,-0.0119,-1.4312
1740035356.1877,-0.0022,0.0381,-0.0017,-0.0513,-3.6046
1740035356.1977,-0.0020,0.0085,-0.0020,-0.0070,-1.3323
1740035356.2078,-0.0019,0.0296,-0.0020,-0.0390,-3.0795
1740035356.2177,-0.0018,0.0069,-0.0022,-0.0051,-1.3351
1740035356.2277,-0.0017,0.0172,-0.0022,-0.0209,-2.1965
1740035356.2377,-0.0017,-0.0006,-0.0022,0.0054,-0.8097
1740035356.2477,-0.0017,-0.0024,-0.0021,0.0078,-0.6492
1740035356.2577,-0.0018,-0.0072,-0.0020,0.0148,-0.2327
1740035356.2677,-0.0018,-0.0204,-0.0018,0.0342,0.8871
1740035356.2777,-0.0020,-0.0133,-0.0016,0.0233,0.3965
1740035356.2877,-0.0021,-0.0328,-0.0014,0.0522,2.0491
1740035356.2977,-0.0024,-0.0153,-0.0010,0.0257,0.7757
1740035356.3077,-0.0025,-0.0413,-0.0007,0.0644,2.9720
1740035356.3177,-0.0028,-0.0163,-0.0003,0.0267,1.1216
1740035356.3277,-0.0029,-0.0411,-0.0001,0.0639,3.2342
1740035356.3377,-0.0032,-0.0141,0.0004,0.0233,1.2212
1740035356.3477,-0.0033,-0.0394,0.0006,0.0613,3.3620
1740035356.3577,-0.0035,-0.0115,0.0009,0.0194,1.2706
1740035356.3677,-0.0036,-0.0311,0.0011,0.0489,2.9379
1740035356.3778,-0.0038,-0.0069,0.0014,0.0127,1.1139
1740035356.3877,-0.0038,0.0011,0.0014,0.0008,0.5026
1740035356.3978,-0.0038,0.0038,0.0014,-0.0031,0.2957
1740035356.4077,-0.0038,-0.0048,0.0014,0.0100,0.9933
1740035356.4187,-0.0038,0.0024,0.0014,-0.0005,0.4505
1740035356.4277,-0.0037,0.0064,0.0014,-0.0063,0.1274
1740035356.4377,-0.0037,0.0070,0.0013,-0.0071,0.0660
1740035356.4477,-0.0036,0.0110,0.0012,-0.0129,-0.2693
1740035356.4577,-0.0035,0.0084,0.0011,-0.0087,-0.0821
1740035356.4677,-0.0034,0.0099,0.0010,-0.0109,-0.2243
1740035356.4777,-0.0033,0.0077,0.0010,-0.0074,-0.0655
1740035356.4877,-0.0032,0.0089,0.0009,-0.0090,-0.1735
1740035356.4977,-0.0032,0.0071,0.0008,-0.0062,-0.0467
1740035356.5077,-0.0031,0.0100,0.0008,-0.0103,-0.2896
1740035356.5177,-0.0030,0.0073,0.0007,-0.0061,-0.0903
1740035356.5277,-0.0029,0.0038,0.0006,-0.0008,0.1850
1740035356.5377,-0.0029,0.0050,0.0006,-0.0026,0.0867
1740035356.5477,-0.0029,-0.0019,0.0006,0.0080,0.6561
1740035356.5577,-0.0028,0.0033,0.0006,0.0003,0.2627
1740035356.5677,-0.0028,-0.0023,0.0006,0.0087,0.7235
1740035356.5777,-0.0028,0.0034,0.0007,0.0002,0.2880
1740035356.5877,-0.0028,0.0022,0.0007,0.0021,0.3932
1740035356.5977,-0.0027,0.0052,0.0007,-0.0022,0.1647
1740035356.6077,-0.0027,0.0075,0.0006,-0.0055,-0.0197
1740035356.6177,-0.0026,0.0070,0.0006,-0.0047,0.0104
1740035356.6277,-0.0025,0.0068,0.0005,-0.0043,0.0204
1740035356.6377,-0.0025,0.0072,0.0005,-0.0050,-0.0300
1740035356.6477,-0.0024,0.0174,0.0004,-0.0201,-0.8707
1740035356.6577,-0.0022,0.0099,0.0003,-0.0087,-0.3081
1740035356.6677,-0.0021,0.0195,0.0002,-0.0232,-1.1177
1740035356.6777,-0.0020,0.0100,0.0000,-0.0088,-0.4011
1740035356.6877,-0.0019,0.0200,-0.0000,-0.0238,-1.2442
1740035356.6978,-0.0018,0.0095,-0.0002,-0.0080,-0.4493
1740035356.7077,-0.0017,0.0060,-0.0002,-0.0027,-0.1830
1740035356.7177,-0.0016,0.0043,-0.0002,-0.0003,-0.0537
1740035356.7277,-0.0016,0.0049,-0.0002,-0.0011,-0.0968
1740035356.7377,-0.0016,0.0039,-0.0002,0.0002,-0.0219
1740035356.7477,-0.0015,-0.0111,-0.0002,0.0227,1.2074
1740035356.7577,-0.0016,-0.0012,-0.0001,0.0078,0.4650
1740035356.7677,-0.0016,-0.0194,0.0000,0.0352,1.9809
1740035356.7777,-0.0017,-0.0031,0.0002,0.0106,0.7543
1740035356.7878,-0.0017,0.0023,0.0003,0.0025,0.3430
1740035356.7977,-0.0021,-0.0324,0.0008,0.0545,3.4042
1740035356.8077,-0.0022,-0.0072,0.0011,0.0167,1.5031
1740035356.8177,-0.0027,-0.0455,0.0020,0.0742,4.9809
1740035356.8277,-0.0030,-0.0595,0.0025,0.0954,6.3517
1740035356.8377,-0.0033,-0.0177,0.0030,0.0329,3.1967
1740035356.8477,-0.0034,0.0053,0.0031,-0.0013,1.4184
1740035356.8577,-0.0037,-0.0332,0.0037,0.0568,4.8659
1740035356.8677,-0.0039,-0.0478,0.0041,0.0792,6.2532
1740035356.8777,-0.0041,0.0029,0.0045,0.0036,2.3642
1740035356.8877,-0.0040,-0.0130,0.0044,0.0281,3.6894
1740035356.8977,-0.0040,0.0162,0.0044,-0.0150,1.4088
1740035356.9077,-0.0038,0.0253,0.0042,-0.0281,0.6440
1740035356.9177,-0.0037,0.0130,0.0042,-0.0090,1.6774
1740035356.9278,-0.0035,0.0234,0.0040,-0.0240,0.8313
1740035356.9378,-0.0035,0.0249,0.0040,-0.0262,0.6947
1740035356.9478,-0.0032,0.0298,0.0037,-0.0327,0.2321
1740035356.9577,-0.0024,0.0698,0.0027,-0.0920,-3.3684
1740035356.9677,-0.0019,0.0405,0.0020,-0.0474,-1.2289
1740035356.9778,-0.0012,0.0558,0.0011,-0.0699,-2.7993
1740035356.9878,-0.0008,0.0682,0.0006,-0.0883,-4.0158
1740035356.9977,-0.0003,0.0340,-0.0000,-0.0367,-1.4764
1740035357.0077,0.0000,0.0533,-0.0003,-0.0656,-3.1622
1740035357.0177,0.0004,0.0264,-0.0008,-0.0252,-1.1606
1740035357.0277,0.0007,0.0425,-0.0010,-0.0494,-2.5527
1740035357.0377,0.0010,0.0209,-0.0013,-0.0170,-0.9355
1740035357.0477,0.0011,0.0128,-0.0014,-0.0050,-0.3328
1740035357.0577,0.0012,0.0101,-0.0014,-0.0011,-0.1313
1740035357.0680,0.0013,0.0171,-0.0014,-0.0119,-0.7151
1740035357.0778,0.0016,0.0202,-0.0016,-0.0167,-1.0642
1740035357.0877,0.0017,0.0120,-0.0017,-0.0046,-0.4533
1740035357.0977,0.0018,0.0110,-0.0018,-0.0034,-0.4141
1740035357.1077,0.0019,0.0049,-0.0018,0.0055,0.0638
1740035357.1177,0.0020,0.0053,-0.0017,0.0047,0.0377
1740035357.1277,0.0020,0.0055,-0.0017,0.0041,0.0228
1740035357.1377,0.0020,0.0005,-0.0016,0.0114,0.4649
1740035357.1477,0.0020,0.0039,-0.0015,0.0060,0.2130
1740035357.1593,0.0020,-0.0004,-0.0015,0.0123,0.5715
1740035357.1678,0.0021,0.0023,-0.0013,0.0081,0.3875
1740035357.1777,0.0021,0.0053,-0.0013,0.0033,0.1536
1740035357.1878,0.0022,0.0123,-0.0013,-0.0073,-0.4163
1740035357.1977,0.0023,0.0086,-0.0013,-0.0020,-0.1477
1740035357.2077,0.0024,0.0192,-0.0014,-0.0181,-1.0276
1740035357.2177,0.0025,0.0104,-0.0015,-0.0051,-0.3773
1740035357.2277,0.0026,0.0066,-0.0015,0.0003,-0.0914
1740035357.2378,0.0028,0.0156,-0.0016,-0.0134,-0.9011
1740035357.2477,0.0029,0.0170,-0.0017,-0.0156,-1.0641
1740035357.2577,0.0030,0.0081,-0.0018,-0.0025,-0.3942
1740035357.2677,0.0031,0.0088,-0.0018,-0.0038,-0.4684
1740035357.2777,0.0031,0.0048,-0.0018,0.0018,-0.1731
1740035357.2877,0.0032,0.0021,-0.0018,0.0057,0.0435
1740035357.2977,0.0032,0.0025,-0.0017,0.0049,0.0170
1740035357.3077,0.0032,-0.0068,-0.0017,0.0185,0.7760
1740035357.3177,0.0032,-0.0004,-0.0015,0.0086,0.2899
1740035357.3277,0.0032,-0.0162,-0.0015,0.0321,1.5983
1740035357.3377,0.0031,-0.0030,-0.0012,0.0120,0.5966
1740035357.3477,0.0031,-0.0190,-0.0011,0.0358,1.9290
1740035357.3577,0.0030,-0.0030,-0.0009,0.0116,0.7202
1740035357.3677,0.0030,-0.0145,-0.0008,0.0288,1.6842
1740035357.3777,0.0029,-0.0007,-0.0006,0.0078,0.6288
1740035357.3877,0.0029,-0.0068,-0.0006,0.0169,1.1422
1740035357.3977,0.0029,0.0024,-0.0005,0.0029,0.4264
1740035357.4078,0.0029,0.0051,-0.0005,-0.0011,0.2132
1740035357.4182,0.0029,0.0123,-0.0005,-0.0120,-0.3841
1740035357.4277,0.0034,0.0569,-0.0011,-0.0790,-4.2720
1740035357.4377,0.0038,0.0213,-0.0016,-0.0255,-1.5988
1740035357.4477,0.0040,0.0444,-0.0018,-0.0604,-3.5755
1740035357.4577,0.0042,0.0147,-0.0022,-0.0160,-1.3414
1740035357.4677,0.0044,0.0583,-0.0023,-0.0817,-4.9635
1740035357.4778,0.0047,0.0212,-0.0028,-0.0263,-2.1774
1740035357.4879,0.0048,-0.0051,-0.0028,0.0128,-0.0783
1740035357.4979,0.0053,0.0494,-0.0035,-0.0692,-4.8281
1740035357.5080,0.0056,0.0173,-0.0039,-0.0215,-2.4413
1740035357.5177,0.0062,0.0589,-0.0049,-0.0842,-6.2794
1740035357.5277,0.0066,0.0685,-0.0054,-0.0992,-7.3340
1740035357.5378,0.0070,0.0086,-0.0059,-0.0100,-2.7620
1740035357.5477,0.0070,0.0281,-0.0059,-0.0402,-4.4156
1740035357.5577,0.0071,-0.0072,-0.0060,0.0121,-1.6756
1740035357.5678,0.0070,-0.0173,-0.0059,0.0264,-0.8607
1740035357.5777,0.0070,-0.0006,-0.0059,0.0006,-2.3021
1740035357.5898,0.0069,-0.0155,-0.0058,0.0220,-1.1295
1740035357.5977,0.0067,-0.0251,-0.0055,0.0356,-0.2949
1740035357.6077,0.0064,-0.0324,-0.0051,0.0456,0.3744
1740035357.6177,0.0061,-0.0279,-0.0047,0.0380,0.1092
1740035357.6277,0.0058,-0.0450,-0.0043,0.0630,1.5959
1740035357.6377,0.0055,-0.0305,-0.0038,0.0403,0.5658
1740035357.6477,0.0052,-0.0473,-0.0034,0.0650,2.0367
1740035357.6578,0.0048,-0.0310,-0.0030,0.0400,0.8640
1740035357.6678,0.0046,-0.0218,-0.0027,0.0257,0.1952
1740035357.6777,0.0044,-0.0178,-0.0024,0.0190,-0.0765
1740035357.6877,0.0042,-0.0402,-0.0022,0.0524,1.8020
1740035357.6978,0.0039,-0.0260,-0.0018,0.0306,0.7629
1740035357.7077,0.0037,-0.0345,-0.0016,0.0431,1.5338
1740035357.7178,0.0034,-0.0210,-0.0013,0.0225,0.5465
1740035357.7277,0.0032,-0.0163,-0.0011,0.0153,0.2157
1740035357.7377,0.0030,-0.0224,-0.0008,0.0242,0.8003
1740035357.7477,0.0028,-0.0155,-0.0007,0.0137,0.2985
1740035357.7577,0.0027,-0.0125,-0.0006,0.0091,0.0874
1740035357.7677,0.0025,-0.0077,-0.0005,0.0017,-0.2864
1740035357.7777,0.0025,-0.0096,-0.0004,0.0045,-0.1305
1740035357.7877,0.0024,-0.0076,-0.0004,0.0014,-0.2860
1740035357.7978,0.0023,-0.0093,-0.0004,0.0040,-0.1457
1740035357.8077,0.0022,-0.0084,-0.0003,0.0025,-0.2146
1740035357.8177,0.0021,-0.0097,-0.0003,0.0044,-0.1027
1740035357.8277,0.0020,-0.0162,-0.0002,0.0140,0.4316
1740035357.8377,0.0019,-0.0125,-0.0001,0.0085,0.1689
1740035357.8478,0.0017,-0.0225,-0.0001,0.0234,1.0023
1740035357.8578,0.0016,-0.0137,0.0001,0.0102,0.3533
1740035357.8678,0.0015,-0.0114,0.0002,0.0067,0.1849
1740035357.8777,0.0011,-0.0356,0.0006,0.0429,2.3136
1740035357.8877,0.0009,-0.0293,0.0009,0.0335,1.9253
1740035357.8978,0.0007,-0.0131,0.0011,0.0093,0.7018
1740035357.9077,0.0006,-0.0077,0.0011,0.0013,0.2920
1740035357.9177,0.0004,-0.0118,0.0012,0.0076,0.6707
1740035357.9277,0.0004,-0.0084,0.0012,0.0026,0.4181
1740035357.9378,0.0003,-0.0066,0.0012,0.0001,0.2809
1740035357.9477,0.0003,0.0029,0.0012,-0.0141,-0.4942
1740035357.9577,0.0003,-0.0011,0.0011,-0.0078,-0.1986
1740035357.9677,0.0003,0.0143,0.0010,-0.0307,-1.4739
1740035357.9777,0.0004,0.0021,0.0008,-0.0122,-0.5643
1740035357.9877,0.0004,0.0188,0.0007,-0.0372,-1.9651
1740035357.9977,0.0005,0.0026,0.0005,-0.0127,-0.7479
1740035358.0077,0.0005,0.0219,0.0003,-0.0416,-2.3584
1740035358.0177,0.0006,0.0025,0.0001,-0.0124,-0.8952
1740035358.0277,0.0006,0.0122,-0.0000,-0.0268,-1.7208
1740035358.0378,0.0007,0.0024,-0.0001,-0.0120,-0.9803
1740035358.0478,0.0006,-0.0041,-0.0002,-0.0024,-0.4765
1740035358.0577,0.0007,0.0042,-0.0003,-0.0148,-1.2323
1740035358.0677,0.0007,-0.0060,-0.0004,0.0005,-0.4387
1740035358.0777,0.0007,-0.0067,-0.0004,0.0015,-0.3876
1740035358.0877,0.0006,-0.0103,-0.0003,0.0069,-0.0798
1740035358.0977,0.0005,-0.0105,-0.0003,0.0071,-0.0447
1740035358.1078,0.0004,-0.0105,-0.0002,0.0070,-0.0317
1740035358.1177,0.0003,-0.0103,-0.0002,0.0067,-0.0236
1740035358.1277,0.0002,-0.0102,-0.0001,0.0064,-0.0225
1740035358.1377,0.0001,-0.0099,-0.0000,0.0060,-0.0221
1740035358.1477,-0.0001,-0.0548,0.0001,0.0733,3.6642
1740035358.1577,-0.0004,-0.0239,0.0006,0.0269,1.3561
1740035358.1678,-0.0006,-0.0106,0.0007,0.0070,0.3402
1740035358.1777,-0.0012,-0.0554,0.0015,0.0742,4.3063
1740035358.1878,-0.0015,-0.0195,0.0019,0.0205,1.6009
1740035358.1978,-0.0022,-0.0584,0.0028,0.0789,5.1484
1740035358.2077,-0.0026,-0.0713,0.0034,0.0985,6.4470
1740035358.2177,-0.0030,-0.0182,0.0039,0.0191,2.4079
1740035358.2277,-0.0031,-0.0286,0.0040,0.0353,3.3323
1740035358.2378,-0.0033,-0.0069,0.0041,0.0031,1.6705
1740035358.2478,-0.0033,0.0062,0.0041,-0.0159,0.6283
1740035358.2577,-0.0036,-0.0953,0.0045,0.1369,9.0770
1740035358.2678,-0.0048,-0.0838,0.0063,0.1199,8.9831
1740035358.2777,-0.0053,-0.0554,0.0069,0.0776,6.9787
1740035358.2878,-0.0055,-0.0156,0.0072,0.0186,3.9457
1740035358.2977,-0.0054,0.0195,0.0071,-0.0329,1.1552
1740035358.3077,-0.0052,0.0356,0.0067,-0.0560,-0.2246
1740035358.3177,-0.0049,0.0320,0.0062,-0.0495,-0.0640
1740035358.3277,-0.0046,0.0298,0.0057,-0.0452,-0.0040
1740035358.3378,-0.0043,0.0283,0.0053,-0.0419,0.0185
1740035358.3478,-0.0040,0.0272,0.0050,-0.0396,0.0311
1740035358.3577,-0.0033,0.1178,0.0038,-0.1745,-7.7082
1740035358.3678,-0.0024,0.0733,0.0026,-0.1069,-4.5626
1740035358.3778,-0.0021,0.0498,0.0021,-0.0712,-2.8504
1740035358.3877,-0.0017,0.0268,0.0016,-0.0363,-1.1510
1740035358.3977,-0.0015,0.0167,0.0014,-0.0207,-0.4168
1740035358.4077,-0.0014,0.0126,0.0012,-0.0145,-0.1430
1740035358.4177,-0.0013,0.0110,0.0011,-0.0117,-0.0410
1740035358.4277,-0.0012,0.0102,0.0010,-0.0105,-0.0039
1740035358.4377,-0.0010,0.0206,0.0007,-0.0257,-0.9431
1740035358.4478,-0.0008,0.0232,0.0005,-0.0296,-1.2351
1740035358.4577,-0.0006,0.0278,0.0002,-0.0363,-1.6967
1740035358.4677,-0.0004,0.0148,0.0000,-0.0167,-0.7327
1740035358.4777,-0.0003,0.0084,-0.0001,-0.0072,-0.2643
1740035358.4878,-0.0003,0.0070,-0.0001,-0.0050,-0.1602
1740035358.4980,-0.0002,0.0054,-0.0002,-0.0027,-0.0482
1740035358.5077,-0.0001,0.0150,-0.0002,-0.0170,-0.8360
1740035358.5177,-0.0000,0.0078,-0.0003,-0.0063,-0.3040
1740035358.5277,0.0000,0.0116,-0.0004,-0.0120,-0.6294
1740035358.5377,0.0001,0.0062,-0.0005,-0.0040,-0.2276
1740035358.5477,0.0002,0.0088,-0.0005,-0.0080,-0.4557
1740035358.5578,0.0002,0.0053,-0.0005,-0.0027,-0.1931
1740035358.5679,0.0003,0.0003,-0.0005,0.0048,0.2133
1740035358.5781,0.0003,0.0015,-0.0005,0.0029,0.1247
1740035358.5878,0.0003,-0.0073,-0.0005,0.0161,0.8494
1740035358.5977,0.0002,-0.0024,-0.0004,0.0086,0.4831
1740035358.6078,0.0002,-0.0120,-0.0003,0.0229,1.2866
1740035358.6177,0.0002,-0.0014,-0.0002,0.0069,0.4868
1740035358.6277,0.0002,0.0021,-0.0001,0.0017,0.2186
1740035358.6377,0.0001,-0.0057,0.0000,0.0133,0.9128
1740035358.6477,0.0001,0.0011,0.0001,0.0030,0.3943
1740035358.6578,-0.0001,-0.0177,0.0004,0.0313,2.0735
1740035358.6677,-0.0002,-0.0172,0.0006,0.0305,2.1235
1740035358.6778,-0.0003,0.0001,0.0008,0.0047,0.8015
1740035358.6877,-0.0003,0.0057,0.0008,-0.0037,0.3582
1740035358.6977,-0.0003,-0.0082,0.0010,0.0173,1.5823
1740035358.7077,-0.0004,0.0035,0.0011,-0.0002,0.6828
1740035358.7177,-0.0004,-0.0036,0.0012,0.0105,1.3311
1740035358.7278,-0.0004,0.0002,0.0012,0.0050,1.0477
1740035358.7378,-0.0004,-0.0045,0.0013,0.0122,1.4750
1740035358.7477,-0.0004,0.0130,0.0013,-0.0140,0.0945
1740035358.7578,-0.0003,0.0132,0.0012,-0.0139,0.0463
1740035358.7679,-0.0002,0.0268,0.0011,-0.0342,-1.0893
1740035358.7777,0.0000,0.0171,0.0008,-0.0195,-0.3964
1740035358.7877,0.0002,0.0336,0.0006,-0.0441,-1.8018
1740035358.7977,0.0004,0.0181,0.0003,-0.0207,-0.6638
1740035358.8077,0.0006,0.0122,0.0002,-0.0117,-0.2395
1740035358.8178,0.0011,0.0450,-0.0005,-0.0608,-3.1905
1740035358.8278,0.0014,0.0534,-0.0010,-0.0733,-4.0568
1740035358.8377,0.0018,0.0196,-0.0014,-0.0226,-1.5112
1740035358.8477,0.0019,0.0070,-0.0015,-0.0039,-0.5619
1740035358.8582,0.0020,0.0034,-0.0016,0.0014,-0.2797
1740035358.8677,0.0020,0.0009,-0.0015,0.0049,-0.0832
1740035358.8782,0.0027,0.2153,-0.0026,-0.3169,-17.9387
1740035358.8878,0.0065,0.2625,-0.0082,-0.3872,-24.1581
1740035358.8977,0.0076,0.1420,-0.0099,-0.2065,-15.1527
1740035358.9077,0.0084,0.0183,-0.0109,-0.0220,-5.6875
1740035358.9178,0.0082,-0.0336,-0.0106,0.0543,-1.5194
1740035358.9277,0.0079,-0.0186,-0.0101,0.0302,-2.6481
1740035358.9379,0.0081,0.0120,-0.0104,-0.0171,-5.3516
1740035358.9477,0.0080,-0.0054,-0.0103,0.0076,-4.0347
1740035358.9577,0.0078,-0.0362,-0.0099,0.0522,-1.5450
1740035358.9677,0.0074,-0.0345,-0.0094,0.0480,-1.5746
1740035358.9777,0.0070,-0.0449,-0.0088,0.0621,-0.6274
1740035358.9877,0.0065,-0.0407,-0.0082,0.0544,-0.8264
1740035358.9977,0.0062,-0.0438,-0.0078,0.0581,-0.4934
1740035359.0077,0.0058,-0.0456,-0.0072,0.0596,-0.2073
1740035359.0177,0.0053,-0.0450,-0.0066,0.0574,-0.1167
1740035359.0277,0.0051,-0.0443,-0.0063,0.0559,-0.0998
1740035359.0377,0.0046,-0.0427,-0.0057,0.0522,-0.0689
1740035359.0477,0.0041,-0.0557,-0.0052,0.0707,1.1153
1740035359.0577,0.0037,-0.0444,-0.0045,0.0529,0.3789
1740035359.0677,0.0032,-0.0516,-0.0040,0.0629,1.1035
1740035359.0777,0.0028,-0.0407,-0.0035,0.0457,0.3762
1740035359.0877,0.0024,-0.0353,-0.0031,0.0371,0.0565
1740035359.0977,0.0018,-0.0539,-0.0024,0.0644,1.7923
1740035359.1078,0.0014,-0.0638,-0.0019,0.0787,2.7755
1740035359.1177,0.0009,-0.0394,-0.0013,0.0417,1.0055
1740035359.1277,0.0005,-0.0502,-0.0009,0.0576,2.0086
1740035359.1377,0.0001,-0.0324,-0.0005,0.0307,0.7217
1740035359.1477,-0.0002,-0.0458,-0.0002,0.0507,1.9075
1740035359.1577,-0.0006,-0.0290,0.0001,0.0254,0.6864
1740035359.1677,-0.0006,-0.0277,0.0002,0.0234,0.5966
1740035359.1777,-0.0010,-0.0315,0.0005,0.0290,1.0475
1740035359.1877,-0.0013,-0.0220,0.0008,0.0148,0.3683
1740035359.1977,-0.0015,-0.0224,0.0009,0.0154,0.4707
1740035359.2077,-0.0017,-0.0163,0.0011,0.0064,0.0241
1740035359.2177,-0.0018,-0.0156,0.0011,0.0055,-0.0039
1740035359.2277,-0.0020,-0.0036,0.0011,-0.0123,-0.9554
1740035359.2377,-0.0021,-0.0110,0.0011,-0.0010,-0.3754
1740035359.2477,-0.0022,0.0026,0.0011,-0.0213,-1.4840
1740035359.2578,-0.0022,-0.0092,0.0010,-0.0034,-0.5718
1740035359.2678,-0.0023,0.0036,0.0009,-0.0226,-1.6164
1740035359.2780,-0.0024,-0.0092,0.0008,-0.0031,-0.6205
1740035359.2878,-0.0024,0.0065,0.0008,-0.0267,-1.9120
1740035359.2977,-0.0024,-0.0072,0.0007,-0.0058,-0.8504
1740035359.3078,-0.0025,0.0010,0.0006,-0.0180,-1.5212
1740035359.3177,-0.0026,-0.0110,0.0006,0.0001,-0.5838
1740035359.3278,-0.0027,-0.0159,0.0006,0.0075,-0.1702
1740035359.3380,-0.0028,-0.0028,0.0005,-0.0121,-1.2939
1740035359.3477,-0.0028,-0.0038,0.0004,-0.0106,-1.2401
1740035359.3580,-0.0029,-0.0124,0.0004,0.0025,-0.5549
1740035359.3683,-0.0031,-0.0124,0.0005,0.0025,-0.5340
1740035359.3778,-0.0031,-0.0143,0.0005,0.0054,-0.3748
1740035359.3878,-0.0033,-0.0210,0.0006,0.0155,0.2110
1740035359.3977,-0.0035,-0.0187,0.0007,0.0122,0.0815
1740035359.4077,-0.0037,-0.0237,0.0008,0.0197,0.5350
1740035359.4177,-0.0039,-0.0186,0.0010,0.0121,0.1896
1740035359.4282,-0.0041,-0.0171,0.0011,0.0099,0.1004
1740035359.4378,-0.0044,-0.0666,0.0014,0.0843,4.2589
1740035359.4477,-0.0049,-0.0474,0.0020,0.0557,2.9576
1740035359.4577,-0.0052,-0.0225,0.0023,0.0185,1.1002
1740035359.4678,-0.0054,-0.0131,0.0024,0.0047,0.4080
1740035359.4777,-0.0055,-0.0090,0.0025,-0.0011,0.1040
1740035359.4878,-0.0056,-0.0079,0.0024,-0.0025,0.0242
1740035359.4977,-0.0059,-0.0295,0.0027,0.0303,1.9313
1740035359.5077,-0.0061,-0.0370,0.0030,0.0420,2.6746
1740035359.5177,-0.0064,-0.0148,0.0032,0.0090,1.0024
1740035359.5277,-0.0065,-0.0313,0.0033,0.0342,2.3985
1740035359.5378,-0.0067,-0.0153,0.0034,0.0106,1.2053
1740035359.5477,-0.0068,-0.0384,0.0035,0.0457,3.1408
1740035359.5577,-0.0070,-0.0125,0.0037,0.0072,1.1818
1740035359.5677,-0.0071,-0.0076,0.0038,0.0003,0.8197
1740035359.5777,-0.0071,0.0003,0.0037,-0.0111,0.1927
1740035359.5877,-0.0071,0.0021,0.0036,-0.0131,0.0414
1740035359.5977,-0.0075,-0.0331,0.0040,0.0402,3.1122
1740035359.6077,-0.0077,-0.0100,0.0042,0.0060,1.3836
1740035359.6177,-0.0081,-0.0349,0.0047,0.0439,3.6737
1740035359.6277,-0.0083,-0.0068,0.0049,0.0023,1.5453
1740035359.6377,-0.0086,-0.0299,0.0054,0.0376,3.6707
1740035359.6477,-0.0088,-0.0019,0.0056,-0.0037,1.5375
1740035359.6577,-0.0090,-0.0140,0.0058,0.0153,2.6931
1740035359.6677,-0.0090,0.0064,0.0058,-0.0145,1.1108
1740035359.6777,-0.0090,0.0005,0.0058,-0.0047,1.6698
1740035359.6877,-0.0090,0.0128,0.0057,-0.0223,0.6911
1740035359.6977,-0.0089,0.0100,0.0055,-0.0173,0.9279
1740035359.7077,-0.0088,0.0164,0.0053,-0.0260,0.3941
1740035359.7177,-0.0085,0.0240,0.0049,-0.0366,-0.3060
1740035359.7277,-0.0083,0.0209,0.0046,-0.0311,-0.1291
1740035359.7377,-0.0079,0.0373,0.0040,-0.0550,-1.6394
1740035359.7477,-0.0076,0.0527,0.0035,-0.0774,-3.0345
1740035359.7577,-0.0072,0.0266,0.0030,-0.0376,-1.1025
1740035359.7677,-0.0070,0.0434,0.0027,-0.0622,-2.5590
1740035359.7777,-0.0067,0.0215,0.0022,-0.0288,-0.9260
1740035359.7877,-0.0065,0.0448,0.0020,-0.0634,-2.8933
1740035359.7977,-0.0061,0.0202,0.0015,-0.0261,-1.0520
1740035359.8078,-0.0060,0.0431,0.0014,-0.0603,-2.9587
1740035359.8178,-0.0057,0.0181,0.0010,-0.0225,-1.0776
1740035359.8277,-0.0056,0.0253,0.0008,-0.0332,-1.7208
1740035359.8377,-0.0054,0.0108,0.0006,-0.0112,-0.6164
